Data from pcis_c_h2_p6_Reflection_5.txt Node
Date: Wed Jul 12 17:43:26 ART 2017
User: rodoncho
Spectrometer: USB2E3644
Trigger mode: 4
Integration Time (sec): 6.000000E-2
Scans to average: 10
Electric dark correction enabled: true
Nonlinearity correction enabled: false
Boxcar width: 10
XAxis mode: Wavelengths
Number of Pixels in Spectrum: 2048
>>>>>Begin Spectral Data<<<<<
178.315	-31.64
178.696	30.61
179.076	-14.52
179.457	87.8
179.838	96.43
180.218	-48.21
180.599	-14.84
180.979	-100
181.36	-137.9
181.74	-141.43
182.121	5.77
182.501	90.84
182.881	103.58
183.262	126.07
183.642	134.54
184.022	403.85
184.402	-22.5
184.783	61.07
185.163	35.79
185.543	45.86
185.923	36.17
186.303	51.04
186.683	72.32
187.063	82.24
187.443	88.57
187.823	86.04
188.203	91.19
188.583	95.22
188.963	90.33
189.343	92.6
189.723	91.32
190.102	91.63
190.482	91.07
190.862	96.42
191.242	98.17
191.621	97.48
192.001	101.93
192.38	105.18
192.76	112.79
193.14	117.69
193.519	117.15
193.898	116.39
194.278	113.49
194.657	111.74
195.037	108.54
195.416	107.52
195.795	107.28
196.175	105.06
196.554	103.43
196.933	103.61
197.312	104.66
197.692	106.58
198.071	105.37
198.45	105.83
198.829	103.92
199.208	102.24
199.587	101.08
199.966	99.35
200.345	97.85
200.724	95.59
201.103	94.67
201.482	95.1
201.86	93.37
202.239	94.1
202.618	92.96
202.997	94.74
203.375	97
203.754	99.02
204.133	100.55
204.511	101.22
204.89	100.08
205.269	100.17
205.647	99.26
206.026	98.53
206.404	96.82
206.782	98.08
207.161	100.35
207.539	101.51
207.918	102.84
208.296	104.43
208.674	104.4
209.052	104.18
209.431	103.68
209.809	105.21
210.187	106.71
210.565	106.74
210.943	105.63
211.321	104.63
211.699	104.68
212.077	105.38
212.455	105.12
212.833	106.59
213.211	106.29
213.589	106.97
213.967	107.43
214.345	108.31
214.722	108.13
215.1	109.48
215.478	110.09
215.855	110.36
216.233	108.54
216.611	108.68
216.988	107.93
217.366	108.42
217.743	107.18
218.121	106.46
218.498	108.22
218.876	108.02
219.253	106.59
219.631	106.86
220.008	107.43
220.385	108.06
220.762	108.29
221.14	108.9
221.517	109.76
221.894	110.82
222.271	110.67
222.648	110.73
223.025	109.37
223.402	108.22
223.78	108.74
224.157	110.87
224.533	109.89
224.91	109.53
225.287	110.17
225.664	112.61
226.041	112.48
226.418	112.21
226.795	114.25
227.171	114.68
227.548	112.67
227.925	110.53
228.301	108.59
228.678	106.63
229.055	106.33
229.431	105.73
229.808	105.9
230.184	105.55
230.561	105.67
230.937	106.34
231.313	108.07
231.69	107.5
232.066	105.93
232.442	106.4
232.819	107.45
233.195	107.83
233.571	107.51
233.947	106.78
234.323	106.23
234.699	105.65
235.075	107.6
235.451	109.36
235.827	111.95
236.203	114.62
236.579	117.89
236.955	119.63
237.331	121.4
237.707	124.11
238.083	128.18
238.459	132.18
238.834	136.52
239.21	139.65
239.586	145.37
239.961	151.8
240.337	157.56
240.713	161.67
241.088	163.91
241.464	167.3
241.839	173.96
242.215	184.8
242.59	200.02
242.965	227.64
243.341	293.18
243.716	397.55
244.091	616.13
244.467	988.98
244.842	2040.43
245.217	13185.94
245.592	-9910.47
245.967	-5200.61
246.343	-4008.96
246.718	-4102.43
247.093	-3963.68
247.468	-3560.59
247.843	-2583.13
248.218	-1564.37
248.593	-921.33
248.967	-637.9
249.342	-526.02
249.717	-516.17
250.092	-532.24
250.467	-598.54
250.841	-911.05
251.216	-7212.3
251.591	1420.22
251.965	698.99
252.34	533.67
252.714	480.86
253.089	424.35
253.463	395.19
253.838	400.76
254.212	412.95
254.587	450.9
254.961	522.65
255.335	732.82
255.71	2467.88
256.084	-1010.51
256.458	-389.49
256.832	-245.34
257.206	-202.3
257.581	-178.05
257.955	-164.77
258.329	-149.61
258.703	-135.59
259.077	-125.46
259.451	-118.4
259.825	-112.33
260.199	-106.38
260.572	-105.69
260.946	-101.94
261.32	-100.96
261.694	-97.22
262.068	-94.2
262.441	-92.91
262.815	-90.36
263.189	-90.66
263.562	-95.62
263.936	-109.79
264.309	-134.65
264.683	-166.06
265.056	-187.23
265.43	-195.89
265.803	-194.03
266.176	-194.32
266.55	-200.13
266.923	-197.33
267.296	-189.28
267.67	-173.31
268.043	-158.61
268.416	-140.8
268.789	-124.08
269.162	-107.99
269.535	-99.94
269.908	-96.75
270.281	-92.94
270.654	-92.47
271.027	-94
271.4	-96.07
271.773	-95.91
272.146	-93.29
272.519	-88.14
272.891	-85.08
273.264	-83.26
273.637	-81.33
274.01	-81.31
274.382	-78.77
274.755	-76.61
275.127	-76.11
275.5	-76.64
275.872	-78.66
276.245	-78.45
276.617	-80.55
276.99	-85.47
277.362	-87.87
277.734	-87.57
278.107	-86.49
278.479	-83.96
278.851	-80.3
279.223	-76.04
279.596	-73.22
279.968	-72.04
280.34	-73.38
280.712	-71.02
281.084	-67.73
281.456	-63.05
281.828	-58.78
282.2	-54.6
282.572	-51.14
282.944	-47.62
283.315	-46.12
283.687	-44.44
284.059	-44.18
284.431	-43.34
284.802	-42.35
285.174	-40.89
285.546	-39.68
285.917	-39.33
286.289	-38.11
286.66	-37.16
287.032	-37
287.403	-36.29
287.775	-36.06
288.146	-35.59
288.518	-35.72
288.889	-35.8
289.26	-36.41
289.632	-37.02
290.003	-38.2
290.374	-39.29
290.745	-39.93
291.116	-39.52
291.487	-38.54
291.858	-37.32
292.229	-36.2
292.6	-34.55
292.971	-33.43
293.342	-31.91
293.713	-30.1
294.084	-29.03
294.455	-28.19
294.826	-27.43
295.196	-27.77
295.567	-27.12
295.938	-26.16
296.308	-25.77
296.679	-25.04
297.05	-24.12
297.42	-23.23
297.791	-22.01
298.161	-20.93
298.532	-20.7
298.902	-20.44
299.272	-19.77
299.643	-19.03
300.013	-18.76
300.383	-18.46
300.754	-18.13
301.124	-18.19
301.494	-18.23
301.864	-18.4
302.234	-18.37
302.604	-18.13
302.974	-17.62
303.344	-17.51
303.714	-17.34
304.084	-16.61
304.454	-16.15
304.824	-16.03
305.194	-15.84
305.563	-15.49
305.933	-14.83
306.303	-13.4
306.673	-12.53
307.042	-12.22
307.412	-11.67
307.781	-11.06
308.151	-10.06
308.521	-9.53
308.89	-8.96
309.259	-8.38
309.629	-7.82
309.998	-7.4
310.368	-7.29
310.737	-7.07
311.106	-7.14
311.475	-6.64
311.845	-6.47
312.214	-6.31
312.583	-6
312.952	-5.56
313.321	-5.55
313.69	-5.48
314.059	-6.11
314.428	-6.3
314.797	-6.64
315.166	-7.37
315.535	-7.49
315.904	-7.83
316.272	-7.87
316.641	-7.96
317.01	-8.01
317.379	-8.25
317.747	-8.25
318.116	-8.12
318.484	-7.93
318.853	-7.06
319.221	-6.87
319.59	-6.49
319.958	-6.15
320.327	-5.96
320.695	-5.7
321.063	-5.47
321.432	-5.45
321.8	-4.99
322.168	-4.24
322.536	-3.26
322.905	-2.11
323.273	-1.59
323.641	-1.3
324.009	-1.27
324.377	-1.06
324.745	-1.13
325.113	-0.76
325.481	-0.4
325.849	0.08
326.216	0.57
326.584	1.03
326.952	1.29
327.32	1.59
327.687	1.79
328.055	2.08
328.423	2.35
328.79	2.69
329.158	2.94
329.525	3.37
329.893	3.55
330.26	3.63
330.628	3.61
330.995	3.79
331.362	4.06
331.73	4.6
332.097	4.92
332.464	5.3
332.831	5.46
333.199	5.61
333.566	5.82
333.933	5.83
334.3	5.76
334.667	5.97
335.034	6.07
335.401	6.23
335.768	6.39
336.135	6.5
336.502	6.63
336.868	6.92
337.235	7.16
337.602	7.4
337.969	7.6
338.335	7.77
338.702	8.14
339.069	8.35
339.435	8.52
339.802	8.63
340.168	8.92
340.535	9.19
340.901	9.28
341.267	9.41
341.634	9.83
342	10.07
342.366	10.13
342.733	10.32
343.099	10.5
343.465	10.71
343.831	10.92
344.197	11.08
344.563	11.32
344.929	11.48
345.295	11.64
345.661	11.81
346.027	11.98
346.393	11.94
346.759	11.93
347.125	11.95
347.491	12.06
347.856	12.14
348.222	12.27
348.588	12.51
348.953	12.51
349.319	12.5
349.684	12.56
350.05	12.82
350.415	13.06
350.781	13.26
351.146	13.47
351.512	13.55
351.877	13.7
352.242	13.61
352.608	13.62
352.973	13.65
353.338	13.75
353.703	13.82
354.068	13.95
354.433	14.24
354.798	14.45
355.164	14.58
355.528	14.62
355.893	14.7
356.258	14.81
356.623	14.95
356.988	15.05
357.353	15.29
357.718	15.33
358.082	15.42
358.447	15.46
358.812	15.39
359.176	15.57
359.541	15.56
359.905	15.71
360.27	15.86
360.634	16.01
360.999	16.09
361.363	16.23
361.728	16.24
362.092	16.25
362.456	16.24
362.821	16.25
363.185	16.29
363.549	16.36
363.913	16.34
364.277	16.44
364.641	16.49
365.005	16.5
365.369	16.57
365.733	16.65
366.097	16.79
366.461	16.94
366.825	17.04
367.189	17.25
367.553	17.33
367.916	17.39
368.28	17.43
368.644	17.55
369.007	17.61
369.371	17.79
369.734	17.85
370.098	18.04
370.461	18.24
370.825	18.44
371.188	18.65
371.552	18.8
371.915	18.93
372.278	19.05
372.642	19.1
373.005	19.25
373.368	19.3
373.731	19.36
374.094	19.45
374.457	19.42
374.82	19.47
375.183	19.59
375.546	19.69
375.909	19.75
376.272	19.86
376.635	19.93
376.998	19.89
377.361	20.03
377.723	20.05
378.086	20.06
378.449	20.11
378.811	20.06
379.174	20.09
379.537	20.1
379.899	20.23
380.262	20.31
380.624	20.3
380.987	20.34
381.349	20.35
381.711	20.4
382.074	20.49
382.436	20.58
382.798	20.54
383.16	20.55
383.522	20.64
383.884	20.63
384.247	20.72
384.609	20.81
384.971	20.78
385.333	20.86
385.695	20.91
386.056	20.92
386.418	20.96
386.78	21.06
387.142	21.05
387.504	21.01
387.865	21
388.227	21.06
388.589	21.08
388.95	21.11
389.312	21.1
389.673	21.11
390.035	21.06
390.396	21.1
390.758	21.12
391.119	21.1
391.48	21.06
391.842	21.03
392.203	20.99
392.564	20.97
392.925	20.94
393.286	20.93
393.648	20.91
394.009	20.92
394.37	20.86
394.731	20.86
395.092	20.84
395.452	20.85
395.813	20.84
396.174	20.85
396.535	20.81
396.896	20.78
397.257	20.78
397.617	20.78
397.978	20.76
398.338	20.76
398.699	20.77
399.06	20.84
399.42	20.81
399.781	20.84
400.141	20.85
400.501	20.81
400.862	20.78
401.222	20.78
401.582	20.78
401.943	20.78
402.303	20.82
402.663	20.85
403.023	20.82
403.383	20.77
403.743	20.78
404.103	20.84
404.463	20.92
404.823	20.95
405.183	20.97
405.543	21.02
405.903	21.03
406.262	21.08
406.622	21.01
406.982	21.04
407.342	21.08
407.701	21.07
408.061	21.07
408.42	21.07
408.78	21.1
409.139	21.1
409.499	21.11
409.858	21.09
410.217	21.08
410.577	21.13
410.936	21.14
411.295	21.12
411.655	21.07
412.014	21.02
412.373	20.96
412.732	20.92
413.091	20.87
413.45	20.81
413.809	20.71
414.168	20.66
414.527	20.56
414.886	20.47
415.245	20.39
415.603	20.33
415.962	20.26
416.321	20.15
416.679	20.06
417.038	19.94
417.397	19.83
417.755	19.74
418.114	19.65
418.472	19.57
418.831	19.51
419.189	19.42
419.547	19.35
419.906	19.26
420.264	19.18
420.622	19.07
420.981	19.01
421.339	18.95
421.697	18.88
422.055	18.84
422.413	18.81
422.771	18.78
423.129	18.76
423.487	18.73
423.845	18.7
424.203	18.68
424.56	18.69
424.918	18.69
425.276	18.7
425.634	18.7
425.991	18.7
426.349	18.7
426.707	18.74
427.064	18.73
427.422	18.76
427.779	18.81
428.137	18.87
428.494	18.93
428.851	18.97
429.209	19.03
429.566	19.05
429.923	19.06
430.28	19.09
430.637	19.12
430.995	19.14
431.352	19.17
431.709	19.22
432.066	19.25
432.423	19.29
432.78	19.31
433.137	19.32
433.493	19.38
433.85	19.44
434.207	19.44
434.564	19.49
434.92	19.52
435.277	19.53
435.634	19.57
435.99	19.55
436.347	19.58
436.703	19.61
437.06	19.66
437.416	19.68
437.773	19.69
438.129	19.71
438.485	19.76
438.841	19.76
439.198	19.75
439.554	19.75
439.91	19.74
440.266	19.72
440.622	19.71
440.978	19.65
441.334	19.59
441.69	19.55
442.046	19.5
442.402	19.42
442.758	19.36
443.113	19.28
443.469	19.22
443.825	19.15
444.181	19.09
444.536	19.03
444.892	18.98
445.247	18.93
445.603	18.88
445.958	18.81
446.314	18.77
446.669	18.71
447.025	18.67
447.38	18.63
447.735	18.58
448.09	18.53
448.446	18.49
448.801	18.44
449.156	18.4
449.511	18.35
449.866	18.33
450.221	18.32
450.576	18.29
450.931	18.3
451.286	18.26
451.641	18.25
451.995	18.23
452.35	18.22
452.705	18.2
453.06	18.19
453.414	18.2
453.769	18.21
454.123	18.22
454.478	18.22
454.832	18.23
455.187	18.23
455.541	18.22
455.896	18.23
456.25	18.28
456.604	18.32
456.958	18.36
457.313	18.39
457.667	18.42
458.021	18.47
458.375	18.53
458.729	18.61
459.083	18.67
459.437	18.74
459.791	18.82
460.145	18.9
460.499	18.98
460.852	19.05
461.206	19.15
461.56	19.26
461.914	19.35
462.267	19.46
462.621	19.6
462.974	19.77
463.328	19.98
463.681	20.18
464.035	20.39
464.388	20.59
464.742	20.8
465.095	20.99
465.448	21.18
465.801	21.34
466.155	21.49
466.508	21.63
466.861	21.76
467.214	21.89
467.567	22.04
467.92	22.15
468.273	22.27
468.626	22.37
468.979	22.45
469.332	22.53
469.684	22.61
470.037	22.67
470.39	22.76
470.743	22.82
471.095	22.88
471.448	22.94
471.8	22.99
472.153	23.01
472.505	23.02
472.858	23
473.21	22.98
473.562	22.93
473.915	22.86
474.267	22.8
474.619	22.73
474.971	22.63
475.324	22.54
475.676	22.44
476.028	22.35
476.38	22.25
476.732	22.15
477.084	22.02
477.436	21.9
477.787	21.73
478.139	21.57
478.491	21.41
478.843	21.23
479.195	21.02
479.546	20.78
479.898	20.54
480.249	20.35
480.601	20.18
480.952	20.03
481.304	19.92
481.655	19.82
482.007	19.73
482.358	19.67
482.709	19.61
483.061	19.55
483.412	19.51
483.763	19.49
484.114	19.47
484.465	19.46
484.816	19.45
485.167	19.46
485.518	19.46
485.869	19.47
486.22	19.5
486.571	19.54
486.922	19.59
487.272	19.66
487.623	19.76
487.974	19.9
488.324	20.04
488.675	20.19
489.025	20.34
489.376	20.48
489.726	20.61
490.077	20.76
490.427	20.92
490.778	21.08
491.128	21.29
491.478	21.51
491.828	21.75
492.179	22.03
492.529	22.31
492.879	22.59
493.229	22.87
493.579	23.15
493.929	23.41
494.279	23.7
494.629	24
494.979	24.33
495.328	24.72
495.678	25.2
496.028	25.64
496.378	26.07
496.727	26.5
497.077	26.91
497.426	27.27
497.776	27.6
498.125	27.92
498.475	28.21
498.824	28.53
499.174	28.85
499.523	29.16
499.872	29.49
500.221	29.86
500.571	30.24
500.92	30.58
501.269	30.93
501.618	31.26
501.967	31.58
502.316	31.9
502.665	32.22
503.014	32.54
503.363	32.86
503.711	33.14
504.06	33.44
504.409	33.72
504.758	34.01
505.106	34.28
505.455	34.55
505.803	34.81
506.152	35.03
506.5	35.23
506.849	35.43
507.197	35.64
507.546	35.83
507.894	36.03
508.242	36.26
508.59	36.47
508.939	36.63
509.287	36.82
509.635	37
509.983	37.16
510.331	37.3
510.679	37.46
511.027	37.61
511.375	37.73
511.723	37.89
512.07	38.02
512.418	38.18
512.766	38.36
513.114	38.5
513.461	38.64
513.809	38.8
514.156	38.95
514.504	39.07
514.851	39.18
515.199	39.3
515.546	39.41
515.893	39.51
516.241	39.64
516.588	39.75
516.935	39.85
517.282	39.92
517.63	40.01
517.977	40.08
518.324	40.2
518.671	40.3
519.018	40.4
519.365	40.48
519.711	40.57
520.058	40.66
520.405	40.72
520.752	40.82
521.099	40.92
521.445	41.03
521.792	41.14
522.138	41.26
522.485	41.36
522.832	41.46
523.178	41.56
523.524	41.63
523.871	41.74
524.217	41.81
524.563	41.92
524.91	42.09
525.256	42.24
525.602	42.32
525.948	42.37
526.294	42.39
526.64	42.41
526.986	42.46
527.332	42.46
527.678	42.5
528.024	42.53
528.37	42.56
528.716	42.58
529.061	42.65
529.407	42.69
529.753	42.75
530.098	42.81
530.444	42.85
530.789	42.89
531.135	42.92
531.48	42.99
531.826	43.03
532.171	43.04
532.516	43.06
532.862	43.12
533.207	43.19
533.552	43.28
533.897	43.37
534.242	43.43
534.587	43.52
534.932	43.57
535.277	43.63
535.622	43.7
535.967	43.77
536.312	43.8
536.657	43.87
537.001	43.98
537.346	44.07
537.691	44.2
538.035	44.34
538.38	44.42
538.724	44.47
539.069	44.55
539.413	44.62
539.758	44.66
540.102	44.7
540.446	44.74
540.791	44.79
541.135	44.86
541.479	44.91
541.823	44.94
542.167	44.99
542.512	45.04
542.856	45.07
543.2	45.09
543.543	45.13
543.887	45.17
544.231	45.2
544.575	45.26
544.919	45.29
545.262	45.33
545.606	45.39
545.95	45.44
546.293	45.49
546.637	45.58
546.98	45.67
547.324	45.74
547.667	45.85
548.011	45.94
548.354	46
548.697	46.05
549.04	46.12
549.384	46.17
549.727	46.22
550.07	46.29
550.413	46.37
550.756	46.45
551.099	46.53
551.442	46.62
551.785	46.67
552.128	46.76
552.47	46.83
552.813	46.91
553.156	46.99
553.499	47.05
553.841	47.08
554.184	47.12
554.526	47.18
554.869	47.21
555.211	47.26
555.554	47.29
555.896	47.35
556.238	47.4
556.581	47.45
556.923	47.51
557.265	47.54
557.607	47.62
557.949	47.67
558.291	47.71
558.633	47.72
558.975	47.78
559.317	47.78
559.659	47.81
560.001	47.84
560.343	47.84
560.685	47.87
561.026	47.88
561.368	47.87
561.71	47.86
562.051	47.89
562.393	47.93
562.734	47.92
563.076	47.94
563.417	47.97
563.759	48.06
564.1	48.07
564.441	48.11
564.782	48.11
565.124	48.11
565.465	48.11
565.806	48.14
566.147	48.12
566.488	48.14
566.829	48.18
567.17	48.19
567.511	48.27
567.851	48.35
568.192	48.37
568.533	48.41
568.874	48.48
569.214	48.5
569.555	48.52
569.895	48.6
570.236	48.63
570.576	48.63
570.917	48.61
571.257	48.66
571.598	48.68
571.938	48.69
572.278	48.76
572.618	48.82
572.959	48.85
573.299	48.93
573.639	48.98
573.979	49.03
574.319	49.07
574.659	49.07
574.999	49.03
575.339	49.06
575.678	49.1
576.018	49.11
576.358	49.11
576.698	49.13
577.037	49.12
577.377	49.11
577.716	49.19
578.056	49.23
578.395	49.25
578.735	49.23
579.074	49.26
579.413	49.25
579.753	49.21
580.092	49.28
580.431	49.27
580.77	49.28
581.109	49.26
581.448	49.29
581.787	49.31
582.126	49.35
582.465	49.39
582.804	49.37
583.143	49.43
583.482	49.5
583.82	49.53
584.159	49.6
584.498	49.62
584.836	49.66
585.175	49.66
585.514	49.69
585.852	49.74
586.19	49.78
586.529	49.81
586.867	49.88
587.205	49.89
587.544	49.92
587.882	49.93
588.22	49.96
588.558	49.93
588.896	49.94
589.234	49.97
589.572	49.96
589.91	50.02
590.248	50
590.586	50
590.924	50.02
591.262	50.03
591.599	50.1
591.937	50.12
592.275	50.13
592.612	50.09
592.95	50.16
593.287	50.13
593.625	50.13
593.962	50.15
594.299	50.14
594.637	50.13
594.974	50.11
595.311	50.18
595.648	50.17
595.985	50.21
596.322	50.23
596.659	50.26
596.996	50.22
597.333	50.24
597.67	50.28
598.007	50.29
598.344	50.29
598.681	50.34
599.017	50.31
599.354	50.35
599.691	50.45
600.027	50.5
600.364	50.55
600.7	50.59
601.037	50.66
601.373	50.72
601.71	50.78
602.046	50.86
602.382	50.85
602.718	50.92
603.054	50.9
603.391	50.85
603.727	50.88
604.063	50.95
604.399	50.93
604.735	50.98
605.071	50.99
605.406	50.98
605.742	51
606.078	51.06
606.414	51.1
606.749	51.09
607.085	51.06
607.421	51.08
607.756	51.1
608.092	51.08
608.427	51.07
608.762	51.07
609.098	51.04
609.433	51.06
609.768	51.05
610.104	51.11
610.439	51.17
610.774	51.19
611.109	51.18
611.444	51.24
611.779	51.22
612.114	51.2
612.449	51.24
612.784	51.21
613.118	51.23
613.453	51.18
613.788	51.18
614.123	51.2
614.457	51.21
614.792	51.23
615.126	51.23
615.461	51.22
615.795	51.24
616.13	51.27
616.464	51.28
616.798	51.28
617.132	51.26
617.467	51.32
617.801	51.32
618.135	51.42
618.469	51.41
618.803	51.39
619.137	51.46
619.471	51.46
619.805	51.48
620.139	51.46
620.472	51.55
620.806	51.54
621.14	51.52
621.473	51.54
621.807	51.52
622.141	51.5
622.474	51.55
622.808	51.53
623.141	51.53
623.474	51.59
623.808	51.66
624.141	51.68
624.474	51.66
624.807	51.67
625.141	51.66
625.474	51.64
625.807	51.64
626.14	51.69
626.473	51.71
626.806	51.71
627.138	51.72
627.471	51.68
627.804	51.69
628.137	51.71
628.469	51.76
628.802	51.8
629.135	51.84
629.467	51.82
629.8	51.8
630.132	51.8
630.465	51.81
630.797	51.83
631.129	51.83
631.461	51.88
631.794	51.92
632.126	51.91
632.458	51.98
632.79	52.01
633.122	52.02
633.454	52.02
633.786	52.05
634.118	52.03
634.45	52.04
634.781	52.08
635.113	52.08
635.445	52.07
635.777	52.03
636.108	52.07
636.44	52.1
636.771	52.13
637.103	52.18
637.434	52.16
637.765	52.13
638.097	52.17
638.428	52.07
638.759	52.02
639.09	51.99
639.422	52.01
639.753	52
640.084	52.02
640.415	52.02
640.746	51.96
641.077	51.99
641.407	52.02
641.738	52.02
642.069	52.05
642.4	52.01
642.73	52.02
643.061	51.96
643.392	52.02
643.722	52.01
644.053	51.99
644.383	51.99
