Data from pcis_p_h3_p1_Reflection_5.txt Node
Date: Wed Jul 12 17:51:41 ART 2017
User: rodoncho
Spectrometer: USB2E3644
Trigger mode: 4
Integration Time (sec): 6.000000E-2
Scans to average: 10
Electric dark correction enabled: true
Nonlinearity correction enabled: false
Boxcar width: 10
XAxis mode: Wavelengths
Number of Pixels in Spectrum: 2048
>>>>>Begin Spectral Data<<<<<
178.315	-294.67
178.696	366.67
179.076	428.07
179.457	402.9
179.838	278.79
180.218	783.33
180.599	-16.67
180.979	100
181.36	14.37
181.74	5.83
182.121	-54.17
182.501	83.33
182.881	72.01
183.262	75.4
183.642	108.13
184.022	111.11
184.402	13.33
184.783	204.44
185.163	202.47
185.543	155.04
185.923	145.5
186.303	134.63
186.683	121.38
187.063	132.28
187.443	127.29
187.823	119.22
188.203	112.59
188.583	105.45
188.963	104.84
189.343	100.23
189.723	96.02
190.102	96.84
190.482	100.44
190.862	99.92
191.242	108.52
191.621	116.32
192.001	119.97
192.38	117.26
192.76	119.29
193.14	118.34
193.519	120.59
193.898	120.68
194.278	121.41
194.657	121.79
195.037	118.25
195.416	120.78
195.795	121.75
196.175	122.47
196.554	121.91
196.933	122.17
197.312	121.39
197.692	123.94
198.071	124
198.45	120.75
198.829	121.83
199.208	118.91
199.587	117.38
199.966	116.67
200.345	117.19
200.724	114.95
201.103	113.25
201.482	111.72
201.86	110.52
202.239	109.66
202.618	108.17
202.997	109.22
203.375	108.26
203.754	107.82
204.133	108.79
204.511	111.42
204.89	112.35
205.269	112.28
205.647	111.79
206.026	110.97
206.404	112.15
206.782	110.56
207.161	109.77
207.539	109.27
207.918	108.6
208.296	109.13
208.674	110.06
209.052	111.84
209.431	113.27
209.809	113.68
210.187	114.37
210.565	115.31
210.943	115.55
211.321	115.42
211.699	117.36
212.077	116.87
212.455	114.67
212.833	112.73
213.211	112.87
213.589	113.75
213.967	114.74
214.345	114.44
214.722	115.75
215.1	116.8
215.478	119.31
215.855	121.9
216.233	122.07
216.611	121.14
216.988	118.79
217.366	117.29
217.743	118.15
218.121	119.45
218.498	119.27
218.876	117.42
219.253	118.74
219.631	117.93
220.008	119.12
220.385	120.45
220.762	122.95
221.14	124.32
221.517	123.42
221.894	124.76
222.271	125.89
222.648	125.16
223.025	124.5
223.402	123.16
223.78	121.66
224.157	123.03
224.533	124.51
224.91	127.28
225.287	128.39
225.664	127.56
226.041	125.1
226.418	124.49
226.795	125.2
227.171	123.36
227.548	123.68
227.925	123
228.301	122.4
228.678	121.5
229.055	120.78
229.431	120.91
229.808	119.13
230.184	119.82
230.561	120.48
230.937	120.97
231.313	121.46
231.69	122.14
232.066	119.82
232.442	119.25
232.819	118.56
233.195	118.39
233.571	118.47
233.947	120.15
234.323	121.46
234.699	123.9
235.075	125.64
235.451	125.23
235.827	126.38
236.203	126.95
236.579	127.34
236.955	127.74
237.331	128.04
237.707	131.78
238.083	133.36
238.459	137.52
238.834	143.36
239.21	148.44
239.586	153.57
239.961	159.54
240.337	163.37
240.713	167.78
241.088	171.55
241.464	175.89
241.839	181.26
242.215	187.55
242.59	198.9
242.965	223.62
243.341	274.08
243.716	339.31
244.091	453.54
244.467	594.75
244.842	821.04
245.217	1365.56
245.592	1654.67
245.967	2185.09
246.343	2121.1
246.718	2010.44
247.093	2244.75
247.468	2354.59
247.843	3555.8
248.218	-82083.33
248.593	-2790.96
248.967	-1325.54
249.342	-1011.52
249.717	-917.23
250.092	-904.81
250.467	-1123.22
250.841	-2034.58
251.216	5647.13
251.591	1321.33
251.965	777.41
252.34	607.57
252.714	539.18
253.089	465.73
253.463	464.15
253.838	469.48
254.212	481.75
254.587	536.08
254.961	653.15
255.335	1163.22
255.71	-9264.81
256.084	-806.21
256.458	-401.64
256.832	-278.97
257.206	-231.18
257.581	-207.23
257.955	-195.43
258.329	-181.46
258.703	-170.11
259.077	-160.39
259.451	-152.32
259.825	-141.41
260.199	-135.2
260.572	-130.91
260.946	-125.36
261.32	-124.73
261.694	-119.28
262.068	-114.93
262.441	-112.99
262.815	-112.23
263.189	-114.81
263.562	-121.87
263.936	-138.71
264.309	-165.95
264.683	-197.44
265.056	-222.44
265.43	-234.77
265.803	-232.7
266.176	-224.7
266.55	-217.74
266.923	-210.25
267.296	-204.95
267.67	-195.22
268.043	-181.37
268.416	-166.29
268.789	-150.53
269.162	-130.74
269.535	-120.9
269.908	-115.07
270.281	-111.02
270.654	-111.42
271.027	-112.99
271.4	-115.05
271.773	-114.06
272.146	-110.8
272.519	-104.64
272.891	-100.39
273.264	-100.31
273.637	-99.51
274.01	-100.38
274.382	-100.59
274.755	-100.25
275.127	-97.98
275.5	-100.72
275.872	-101.4
276.245	-102.1
276.617	-104.67
276.99	-110.26
277.362	-115.2
277.734	-117.79
278.107	-116.18
278.479	-110.11
278.851	-106.45
279.223	-102.7
279.596	-100.24
279.968	-98.83
280.34	-100.49
280.712	-98.87
281.084	-92.19
281.456	-83.92
281.828	-76.55
282.2	-70.53
282.572	-65.42
282.944	-62.52
283.315	-60.33
283.687	-58.98
284.059	-58.53
284.431	-57.59
284.802	-56.38
285.174	-54.2
285.546	-52.38
285.917	-52.23
286.289	-51.03
286.66	-49.42
287.032	-48.57
287.403	-47.9
287.775	-47.75
288.146	-46.34
288.518	-45.47
288.889	-45.56
289.26	-47.21
289.632	-48.83
290.003	-50.14
290.374	-51.34
290.745	-51.87
291.116	-51.63
291.487	-50.43
291.858	-48.96
292.229	-48.26
292.6	-47.12
292.971	-46.49
293.342	-44.77
293.713	-42.23
294.084	-40.73
294.455	-40.1
294.826	-38.74
295.196	-38.45
295.567	-37.93
295.938	-38.13
296.308	-38.68
296.679	-37.97
297.05	-37.01
297.42	-36.31
297.791	-35.54
298.161	-34.53
298.532	-34.04
298.902	-33.56
299.272	-33.08
299.643	-32.32
300.013	-32.09
300.383	-31.81
300.754	-31.5
301.124	-31.71
301.494	-32.03
301.864	-32.11
302.234	-31.98
302.604	-32.28
302.974	-31.88
303.344	-31.69
303.714	-31.56
304.084	-30.58
304.454	-30.3
304.824	-29.63
305.194	-28.72
305.563	-27.76
305.933	-26.58
306.303	-24.9
306.673	-23.69
307.042	-22.82
307.412	-21.82
307.781	-20.25
308.151	-18.97
308.521	-18.36
308.89	-17.74
309.259	-17.15
309.629	-17.01
309.998	-17.12
310.368	-16.97
310.737	-16.68
311.106	-16.05
311.475	-15.3
311.845	-14.91
312.214	-14.55
312.583	-14.26
312.952	-14.11
313.321	-14.01
313.69	-14.18
314.059	-14.86
314.428	-15.13
314.797	-15.64
315.166	-16.61
315.535	-17.32
315.904	-17.84
316.272	-17.62
316.641	-17.79
317.01	-17.45
317.379	-17.46
317.747	-17.1
318.116	-16.75
318.484	-16.44
318.853	-16.41
319.221	-16.27
319.59	-15.95
319.958	-15.3
320.327	-15.19
320.695	-14.92
321.063	-14.67
321.432	-14.14
321.8	-13.74
322.168	-12.73
322.536	-11.53
322.905	-10.25
323.273	-9.53
323.641	-9.08
324.009	-8.97
324.377	-8.41
324.745	-8.43
325.113	-8.18
325.481	-7.56
325.849	-6.95
326.216	-6.51
326.584	-5.89
326.952	-5.35
327.32	-4.92
327.687	-4.7
328.055	-4.18
328.423	-3.86
328.79	-3.58
329.158	-3.42
329.525	-2.72
329.893	-2.56
330.26	-2.55
330.628	-2.55
330.995	-2.38
331.362	-2.09
331.73	-1.55
332.097	-1.17
332.464	-0.8
332.831	-0.43
333.199	-0.14
333.566	0.1
333.933	0.38
334.3	0.47
334.667	0.56
335.034	0.65
335.401	0.67
335.768	0.76
336.135	1.01
336.502	1.16
336.868	1.46
337.235	1.49
337.602	1.76
337.969	2.03
338.335	2.41
338.702	2.79
339.069	3.02
339.435	3.09
339.802	3.15
340.168	3.31
340.535	3.52
340.901	3.51
341.267	3.63
341.634	3.9
342	4.18
342.366	4.39
342.733	4.63
343.099	4.98
343.465	5.22
343.831	5.39
344.197	5.5
344.563	5.48
344.929	5.61
345.295	5.81
345.661	5.99
346.027	6.08
346.393	6.23
346.759	6.24
347.125	6.35
347.491	6.49
347.856	6.63
348.222	6.61
348.588	6.72
348.953	6.59
349.319	6.52
349.684	6.53
350.05	6.67
350.415	6.78
350.781	6.86
351.146	7.02
351.512	7.13
351.877	7.3
352.242	7.47
352.608	7.5
352.973	7.47
353.338	7.49
353.703	7.51
354.068	7.54
354.433	7.72
354.798	7.87
355.164	7.89
355.528	7.88
355.893	7.98
356.258	8.13
356.623	8.34
356.988	8.44
357.353	8.66
357.718	8.7
358.082	8.72
358.447	8.61
358.812	8.57
359.176	8.6
359.541	8.58
359.905	8.67
360.27	8.75
360.634	8.82
360.999	8.79
361.363	8.87
361.728	8.84
362.092	8.77
362.456	8.7
362.821	8.76
363.185	8.89
363.549	9.01
363.913	9.08
364.277	9.15
364.641	9.18
365.005	9.14
365.369	9.18
365.733	9.27
366.097	9.44
366.461	9.51
366.825	9.55
367.189	9.74
367.553	9.79
367.916	9.91
368.28	9.95
368.644	10.16
369.007	10.2
369.371	10.32
369.734	10.43
370.098	10.62
370.461	10.69
370.825	10.72
371.188	10.82
371.552	10.97
371.915	11.05
372.278	11.11
372.642	11.21
373.005	11.33
373.368	11.36
373.731	11.42
374.094	11.48
374.457	11.53
374.82	11.55
375.183	11.58
375.546	11.58
375.909	11.65
376.272	11.65
376.635	11.68
376.998	11.71
377.361	11.77
377.723	11.8
378.086	11.87
378.449	11.94
378.811	12.02
379.174	11.99
379.537	12.03
379.899	12.1
380.262	12.1
380.624	12.07
380.987	12.12
381.349	12.09
381.711	12.15
382.074	12.23
382.436	12.29
382.798	12.3
383.16	12.3
383.522	12.35
383.884	12.35
384.247	12.45
384.609	12.51
384.971	12.5
385.333	12.54
385.695	12.53
386.056	12.51
386.418	12.42
386.78	12.41
387.142	12.36
387.504	12.3
387.865	12.3
388.227	12.33
388.589	12.33
388.95	12.38
389.312	12.3
389.673	12.25
390.035	12.19
390.396	12.19
390.758	12.19
391.119	12.16
391.48	12.14
391.842	12.09
392.203	12.04
392.564	12.07
392.925	12.01
393.286	12
393.648	11.96
394.009	11.98
394.37	11.95
394.731	11.92
395.092	11.91
395.452	11.89
395.813	11.83
396.174	11.82
396.535	11.77
396.896	11.79
397.257	11.77
397.617	11.77
397.978	11.78
398.338	11.78
398.699	11.78
399.06	11.75
399.42	11.67
399.781	11.65
400.141	11.55
400.501	11.53
400.862	11.55
401.222	11.57
401.582	11.49
401.943	11.45
402.303	11.47
402.663	11.46
403.023	11.46
403.383	11.48
403.743	11.48
404.103	11.5
404.463	11.5
404.823	11.52
405.183	11.51
405.543	11.51
405.903	11.5
406.262	11.46
406.622	11.47
406.982	11.47
407.342	11.48
407.701	11.53
408.061	11.54
408.42	11.51
408.78	11.52
409.139	11.55
409.499	11.55
409.858	11.56
410.217	11.58
410.577	11.59
410.936	11.59
411.295	11.55
411.655	11.49
412.014	11.45
412.373	11.38
412.732	11.35
413.091	11.32
413.45	11.24
413.809	11.2
414.168	11.12
414.527	11.03
414.886	10.92
415.245	10.8
415.603	10.68
415.962	10.56
416.321	10.44
416.679	10.35
417.038	10.24
417.397	10.1
417.755	9.98
418.114	9.86
418.472	9.73
418.831	9.66
419.189	9.6
419.547	9.53
419.906	9.46
420.264	9.36
420.622	9.26
420.981	9.2
421.339	9.13
421.697	9.07
422.055	9.03
422.413	8.98
422.771	8.95
423.129	8.93
423.487	8.92
423.845	8.9
424.203	8.88
424.56	8.88
424.918	8.89
425.276	8.9
425.634	8.94
425.991	8.97
426.349	8.98
426.707	9
427.064	9.03
427.422	9.05
427.779	9.12
428.137	9.15
428.494	9.2
428.851	9.24
429.209	9.28
429.566	9.33
429.923	9.36
430.28	9.4
430.637	9.44
430.995	9.46
431.352	9.48
431.709	9.53
432.066	9.57
432.423	9.6
432.78	9.63
433.137	9.65
433.493	9.68
433.85	9.72
434.207	9.73
434.564	9.74
434.92	9.74
435.277	9.75
435.634	9.77
435.99	9.78
436.347	9.79
436.703	9.82
437.06	9.84
437.416	9.86
437.773	9.86
438.129	9.85
438.485	9.85
438.841	9.86
439.198	9.85
439.554	9.83
439.91	9.84
440.266	9.81
440.622	9.77
440.978	9.73
441.334	9.66
441.69	9.61
442.046	9.54
442.402	9.48
442.758	9.38
443.113	9.32
443.469	9.25
443.825	9.18
444.181	9.13
444.536	9.06
444.892	9.02
445.247	8.96
445.603	8.91
445.958	8.87
446.314	8.81
446.669	8.76
447.025	8.72
447.38	8.65
447.735	8.61
448.09	8.56
448.446	8.52
448.801	8.48
449.156	8.45
449.511	8.42
449.866	8.4
450.221	8.42
450.576	8.42
450.931	8.41
451.286	8.39
451.641	8.38
451.995	8.36
452.35	8.37
452.705	8.35
453.06	8.36
453.414	8.36
453.769	8.37
454.123	8.38
454.478	8.39
454.832	8.4
455.187	8.41
455.541	8.42
455.896	8.42
456.25	8.46
456.604	8.49
456.958	8.53
457.313	8.57
457.667	8.6
458.021	8.63
458.375	8.7
458.729	8.79
459.083	8.86
459.437	8.93
459.791	8.99
460.145	9.07
460.499	9.15
460.852	9.22
461.206	9.31
461.56	9.39
461.914	9.48
462.267	9.59
462.621	9.72
462.974	9.87
463.328	10.06
463.681	10.23
464.035	10.4
464.388	10.61
464.742	10.76
465.095	10.92
465.448	11.1
465.801	11.23
466.155	11.34
466.508	11.46
466.861	11.57
467.214	11.69
467.567	11.8
467.92	11.9
468.273	12
468.626	12.08
468.979	12.17
469.332	12.23
469.684	12.3
470.037	12.35
470.39	12.42
470.743	12.47
471.095	12.53
471.448	12.58
471.8	12.59
472.153	12.62
472.505	12.61
472.858	12.58
473.21	12.56
473.562	12.5
473.915	12.43
474.267	12.34
474.619	12.25
474.971	12.14
475.324	12.04
475.676	11.93
476.028	11.8
476.38	11.68
476.732	11.57
477.084	11.43
477.436	11.28
477.787	11.11
478.139	10.95
478.491	10.78
478.843	10.61
479.195	10.41
479.546	10.17
479.898	9.86
480.249	9.57
480.601	9.34
480.952	9.16
481.304	9.05
481.655	8.97
482.007	8.9
482.358	8.85
482.709	8.79
483.061	8.75
483.412	8.72
483.763	8.67
484.114	8.63
484.465	8.61
484.816	8.59
485.167	8.59
485.518	8.59
485.869	8.6
486.22	8.62
486.571	8.65
486.922	8.69
487.272	8.77
487.623	8.87
487.974	9
488.324	9.13
488.675	9.25
489.025	9.36
489.376	9.45
489.726	9.56
490.077	9.68
490.427	9.79
490.778	9.93
491.128	10.11
491.478	10.3
491.828	10.52
492.179	10.76
492.529	10.98
492.879	11.21
493.229	11.44
493.579	11.65
493.929	11.87
494.279	12.09
494.629	12.32
494.979	12.63
495.328	12.96
495.678	13.36
496.028	13.75
496.378	14.12
496.727	14.46
497.077	14.77
497.426	15.08
497.776	15.36
498.125	15.64
498.475	15.92
498.824	16.16
499.174	16.42
499.523	16.65
499.872	16.93
500.221	17.21
500.571	17.47
500.92	17.74
501.269	18
501.618	18.26
501.967	18.52
502.316	18.76
502.665	19.02
503.014	19.24
503.363	19.46
503.711	19.67
504.06	19.85
504.409	20
504.758	20.14
505.106	20.31
505.455	20.43
505.803	20.54
506.152	20.67
506.5	20.79
506.849	20.89
507.197	20.98
507.546	21.08
507.894	21.18
508.242	21.27
508.59	21.33
508.939	21.37
509.287	21.42
509.635	21.47
509.983	21.5
510.331	21.54
510.679	21.57
511.027	21.58
511.375	21.61
511.723	21.67
512.07	21.69
512.418	21.71
512.766	21.73
513.114	21.76
513.461	21.77
513.809	21.77
514.156	21.75
514.504	21.75
514.851	21.7
515.199	21.66
515.546	21.63
515.893	21.62
516.241	21.63
516.588	21.61
516.935	21.59
517.282	21.57
517.63	21.54
517.977	21.5
518.324	21.49
518.671	21.5
519.018	21.5
519.365	21.49
519.711	21.47
520.058	21.44
520.405	21.41
520.752	21.39
521.099	21.35
521.445	21.33
521.792	21.27
522.138	21.23
522.485	21.2
522.832	21.15
523.178	21.1
523.524	21.05
523.871	21.01
524.217	20.96
524.563	20.87
524.91	20.76
525.256	20.66
525.602	20.56
525.948	20.48
526.294	20.42
526.64	20.36
526.986	20.32
527.332	20.28
527.678	20.26
528.024	20.22
528.37	20.2
528.716	20.17
529.061	20.14
529.407	20.1
529.753	20.06
530.098	20
530.444	19.95
530.789	19.93
531.135	19.9
531.48	19.88
531.826	19.86
532.171	19.84
532.516	19.82
532.862	19.77
533.207	19.73
533.552	19.69
533.897	19.66
534.242	19.64
534.587	19.6
534.932	19.56
535.277	19.54
535.622	19.51
535.967	19.5
536.312	19.46
536.657	19.43
537.001	19.39
537.346	19.36
537.691	19.3
538.035	19.2
538.38	19.11
538.724	19.05
539.069	18.97
539.413	18.93
539.758	18.89
540.102	18.87
540.446	18.83
540.791	18.81
541.135	18.79
541.479	18.76
541.823	18.75
542.167	18.71
542.512	18.68
542.856	18.62
543.2	18.57
543.543	18.55
543.887	18.52
544.231	18.5
544.575	18.47
544.919	18.44
545.262	18.42
545.606	18.41
545.95	18.35
546.293	18.32
546.637	18.29
546.98	18.27
547.324	18.22
547.667	18.18
548.011	18.09
548.354	18.02
548.697	17.96
549.04	17.88
549.384	17.81
549.727	17.74
550.07	17.72
550.413	17.66
550.756	17.6
551.099	17.54
551.442	17.47
551.785	17.4
552.128	17.35
552.47	17.3
552.813	17.24
553.156	17.2
553.499	17.17
553.841	17.11
554.184	17.04
554.526	16.98
554.869	16.93
555.211	16.89
555.554	16.85
555.896	16.76
556.238	16.75
556.581	16.71
556.923	16.65
557.265	16.57
557.607	16.52
557.949	16.47
558.291	16.4
558.633	16.33
558.975	16.26
559.317	16.2
559.659	16.13
560.001	16.07
560.343	16
560.685	15.91
561.026	15.86
561.368	15.8
561.71	15.71
562.051	15.62
562.393	15.61
562.734	15.55
563.076	15.48
563.417	15.39
563.759	15.32
564.1	15.26
564.441	15.22
564.782	15.15
565.124	15.11
565.465	15.06
565.806	15.02
566.147	15.01
566.488	14.98
566.829	14.93
567.17	14.87
567.511	14.82
567.851	14.78
568.192	14.73
568.533	14.68
568.874	14.67
569.214	14.64
569.555	14.54
569.895	14.51
570.236	14.48
570.576	14.44
570.917	14.41
571.257	14.36
571.598	14.31
571.938	14.25
572.278	14.2
572.618	14.15
572.959	14.1
573.299	14.02
573.639	13.98
573.979	13.93
574.319	13.9
574.659	13.87
574.999	13.82
575.339	13.76
575.678	13.69
576.018	13.64
576.358	13.57
576.698	13.55
577.037	13.49
577.377	13.41
577.716	13.36
578.056	13.29
578.395	13.25
578.735	13.17
579.074	13.13
579.413	13.07
579.753	13.02
580.092	12.97
580.431	12.94
580.77	12.93
581.109	12.9
581.448	12.87
581.787	12.83
582.126	12.77
582.465	12.73
582.804	12.74
583.143	12.68
583.482	12.65
583.82	12.62
584.159	12.56
584.498	12.53
584.836	12.52
585.175	12.45
585.514	12.42
585.852	12.42
586.19	12.39
586.529	12.34
586.867	12.34
587.205	12.31
587.544	12.28
587.882	12.19
588.22	12.13
588.558	12.07
588.896	12.05
589.234	12.06
589.572	12.04
589.91	11.97
590.248	11.96
590.586	11.96
590.924	11.91
591.262	11.9
591.599	11.9
591.937	11.86
592.275	11.83
592.612	11.82
592.95	11.76
593.287	11.78
593.625	11.78
593.962	11.74
594.299	11.72
594.637	11.69
594.974	11.7
595.311	11.69
595.648	11.7
595.985	11.67
596.322	11.64
596.659	11.61
596.996	11.58
597.333	11.55
597.67	11.51
598.007	11.5
598.344	11.5
598.681	11.47
599.017	11.42
599.354	11.42
599.691	11.37
600.027	11.38
600.364	11.35
600.7	11.31
601.037	11.3
601.373	11.28
601.71	11.3
602.046	11.29
602.382	11.28
602.718	11.25
603.054	11.24
603.391	11.21
603.727	11.18
604.063	11.19
604.399	11.16
604.735	11.16
605.071	11.14
605.406	11.1
605.742	11.11
606.078	11.1
606.414	11.1
606.749	11.09
607.085	11.08
607.421	11.05
607.756	11.04
608.092	11.02
608.427	10.98
608.762	10.94
609.098	10.88
609.433	10.81
609.768	10.79
610.104	10.78
610.439	10.78
610.774	10.77
611.109	10.73
611.444	10.73
611.779	10.68
612.114	10.64
612.449	10.6
612.784	10.56
613.118	10.57
613.453	10.53
613.788	10.48
614.123	10.35
614.457	10.29
614.792	10.23
615.126	10.14
615.461	10.08
615.795	10
616.13	9.97
616.464	9.99
616.798	9.97
617.132	9.92
617.467	9.86
617.801	9.8
618.135	9.83
618.469	9.79
618.803	9.76
619.137	9.73
619.471	9.71
619.805	9.67
620.139	9.6
620.472	9.58
620.806	9.56
621.14	9.6
621.473	9.59
621.807	9.58
622.141	9.57
622.474	9.54
622.808	9.55
623.141	9.59
623.474	9.56
623.808	9.57
624.141	9.55
624.474	9.61
624.807	9.63
625.141	9.61
625.474	9.62
625.807	9.61
626.14	9.6
626.473	9.6
626.806	9.6
627.138	9.61
627.471	9.58
627.804	9.59
628.137	9.59
628.469	9.56
628.802	9.52
629.135	9.5
629.467	9.5
629.8	9.48
630.132	9.46
630.465	9.44
630.797	9.37
631.129	9.36
631.461	9.3
631.794	9.31
632.126	9.25
632.458	9.23
632.79	9.26
633.122	9.25
633.454	9.24
633.786	9.2
634.118	9.18
634.45	9.16
634.781	9.11
635.113	9.09
635.445	9.08
635.777	9.07
636.108	9.07
636.44	9.03
636.771	8.97
637.103	8.94
637.434	8.89
637.765	8.9
638.097	8.86
638.428	8.87
638.759	8.81
639.09	8.78
639.422	8.76
639.753	8.67
640.084	8.65
640.415	8.65
640.746	8.63
641.077	8.61
641.407	8.57
641.738	8.56
642.069	8.54
642.4	8.52
642.73	8.51
643.061	8.45
643.392	8.49
643.722	8.53
644.053	8.48
644.383	8.48
644.713	8.44
645.044	8.42
645.374	8.34
645.704	8.31
646.034	8.33
646.365	8.32
646.695	8.33
647.025	8.35
647.355	8.31
647.685	8.31
648.015	8.41
648.344	8.43
648.674	8.41
649.004	8.44
649.334	8.47
