Data from pcis_p_h3_p5_Reflection_5.txt Node
Date: Wed Jul 12 17:55:05 ART 2017
User: rodoncho
Spectrometer: USB2E3644
Trigger mode: 4
Integration Time (sec): 6.000000E-2
Scans to average: 10
Electric dark correction enabled: true
Nonlinearity correction enabled: false
Boxcar width: 10
XAxis mode: Wavelengths
Number of Pixels in Spectrum: 2048
>>>>>Begin Spectral Data<<<<<
178.315	156.74
178.696	178.43
179.076	160.92
179.457	324.76
179.838	296.67
180.218	163.33
180.599	-56.67
180.979	5
181.36	-230.95
181.74	-102.15
182.121	16.67
182.501	99.31
182.881	109.05
183.262	125.2
183.642	-204.17
184.022	107.25
184.402	72.22
184.783	58.89
185.163	62.17
185.543	69.17
185.923	67.85
186.303	74.96
186.683	77.78
187.063	72.25
187.443	76.67
187.823	77.28
188.203	77.74
188.583	81.86
188.963	89.32
189.343	91.42
189.723	96.09
190.102	93.97
190.482	90.81
190.862	92.89
191.242	97.18
191.621	100.16
192.001	102.02
192.38	107.69
192.76	111.57
193.14	108.4
193.519	109.3
193.898	113.5
194.278	111.09
194.657	112.73
195.037	114.69
195.416	114.06
195.795	114.43
196.175	112.58
196.554	110.72
196.933	109.43
197.312	111.44
197.692	112.61
198.071	111.03
198.45	110.05
198.829	107.49
199.208	105.34
199.587	104.98
199.966	102.36
200.345	101.39
200.724	101.58
201.103	103.52
201.482	102.4
201.86	99.27
202.239	97.89
202.618	97.12
202.997	98.69
203.375	99.17
203.754	96.67
204.133	95.88
204.511	94.78
204.89	95.33
205.269	96.02
205.647	93.08
206.026	93.6
206.404	94.35
206.782	95.78
207.161	97.33
207.539	98.25
207.918	99.25
208.296	99.34
208.674	99.88
209.052	99.8
209.431	100.4
209.809	101.76
210.187	101.91
210.565	101.82
210.943	102.82
211.321	104.53
211.699	105.1
212.077	103.56
212.455	103.54
212.833	103.11
213.211	102.13
213.589	103.48
213.967	103.37
214.345	104.05
214.722	105.11
215.1	104.55
215.478	104.55
215.855	105.28
216.233	105.77
216.611	106.62
216.988	106.69
217.366	107.73
217.743	109.41
218.121	110.75
218.498	110.6
218.876	107.98
219.253	106.22
219.631	106.41
220.008	108.45
220.385	109.16
220.762	108.31
221.14	108.61
221.517	108.44
221.894	109.37
222.271	108.97
222.648	109.09
223.025	110.79
223.402	111.74
223.78	113.57
224.157	113.55
224.533	112.91
224.91	112.62
225.287	111.02
225.664	110.42
226.041	108.37
226.418	107.61
226.795	108.28
227.171	109.09
227.548	110.9
227.925	112.2
228.301	111.69
228.678	113.54
229.055	113.45
229.431	114.59
229.808	113.68
230.184	113.26
230.561	113.43
230.937	114.38
231.313	114.2
231.69	112.66
232.066	113.38
232.442	111.97
232.819	111.61
233.195	112.13
233.571	109.93
233.947	110.19
234.323	111.52
234.699	112.11
235.075	111.69
235.451	111.66
235.827	110.36
236.203	111.56
236.579	110.97
236.955	112.38
237.331	113.23
237.707	115.86
238.083	117.39
238.459	119.26
238.834	122.21
239.21	126.67
239.586	131.45
239.961	134.88
240.337	137.72
240.713	138.99
241.088	140.41
241.464	146.87
241.839	155.87
242.215	163.63
242.59	176.06
242.965	204.31
243.341	249.3
243.716	327.92
244.091	465.22
244.467	734.64
244.842	1183.86
245.217	3496.83
245.592	48622.22
245.967	-5213.1
246.343	-6148.61
246.718	-148666.67
247.093	-14726.67
247.468	-9141.67
247.843	-4176.19
248.218	-1627.41
248.593	-937.61
248.967	-641.96
249.342	-584.06
249.717	-603.95
250.092	-643.52
250.467	-821.36
250.841	-1721.46
251.216	3970.18
251.591	1042.53
251.965	630.32
252.34	494.09
252.714	429.4
253.089	386.45
253.463	382.44
253.838	390.09
254.212	414.16
254.587	469.4
254.961	542.6
255.335	758.81
255.71	2322.71
256.084	-1177.53
256.458	-466.17
256.832	-297.99
257.206	-234.99
257.581	-205.44
257.955	-186.63
258.329	-172.99
258.703	-159.49
259.077	-148.96
259.451	-141.29
259.825	-135.22
260.199	-131.27
260.572	-128.21
260.946	-123.63
261.32	-120.24
261.694	-116.36
262.068	-113.34
262.441	-111.13
262.815	-110.02
263.189	-108.64
263.562	-114.63
263.936	-131.61
264.309	-155.11
264.683	-188.76
265.056	-210.9
265.43	-225.38
265.803	-225.3
266.176	-214.7
266.55	-214.61
266.923	-206.26
267.296	-193.35
267.67	-181.02
268.043	-162.37
268.416	-145.6
268.789	-132.11
269.162	-117.41
269.535	-109.11
269.908	-104.12
270.281	-100.62
270.654	-99.76
271.027	-101.78
271.4	-104.01
271.773	-104.95
272.146	-103.22
272.519	-98.12
272.891	-95.21
273.264	-93.96
273.637	-93.82
274.01	-94.02
274.382	-92.54
274.755	-92.1
275.127	-92.74
275.5	-94.03
275.872	-95.62
276.245	-97.47
276.617	-101.53
276.99	-105.72
277.362	-107.33
277.734	-105.87
278.107	-103.72
278.479	-98.21
278.851	-95.36
279.223	-91.11
279.596	-89
279.968	-88.5
280.34	-89
280.712	-86.65
281.084	-81.05
281.456	-74.07
281.828	-67.79
282.2	-61.5
282.572	-57.41
282.944	-54.18
283.315	-52.23
283.687	-51.49
284.059	-50.66
284.431	-49.19
284.802	-48.15
285.174	-47.1
285.546	-46.24
285.917	-46.08
286.289	-44.68
286.66	-43.07
287.032	-42.61
287.403	-41.94
287.775	-41.34
288.146	-40.84
288.518	-40.52
288.889	-40.66
289.26	-42.1
289.632	-43.32
290.003	-44.83
290.374	-46.14
290.745	-47.25
291.116	-46.5
291.487	-45.01
291.858	-43.21
292.229	-42.53
292.6	-41.19
292.971	-40.02
293.342	-37.98
293.713	-35.92
294.084	-35.38
294.455	-34.76
294.826	-33.86
295.196	-33.98
295.567	-33.41
295.938	-32.47
296.308	-32.48
296.679	-31.7
297.05	-30.68
297.42	-29.77
297.791	-28.45
298.161	-27.39
298.532	-26.1
298.902	-25.76
299.272	-25.55
299.643	-25.18
300.013	-24.39
300.383	-23.88
300.754	-23.44
301.124	-23.81
301.494	-23.94
301.864	-23.94
302.234	-24.23
302.604	-24.45
302.974	-23.52
303.344	-23.11
303.714	-23.36
304.084	-22.48
304.454	-22.53
304.824	-21.8
305.194	-21.19
305.563	-20.55
305.933	-19.6
306.303	-18.99
306.673	-18.18
307.042	-17.31
307.412	-16.26
307.781	-15.42
308.151	-14.69
308.521	-14.1
308.89	-13.46
309.259	-13.11
309.629	-12.71
309.998	-12.22
310.368	-12.1
310.737	-11.73
311.106	-11.35
311.475	-10.86
311.845	-10.79
312.214	-10.21
312.583	-9.89
312.952	-9.49
313.321	-9.55
313.69	-9.51
314.059	-9.63
314.428	-9.65
314.797	-10.02
315.166	-10.99
315.535	-11.39
315.904	-11.46
316.272	-11.46
316.641	-11.5
317.01	-11.49
317.379	-11.37
317.747	-10.89
318.116	-10.03
318.484	-9.53
318.853	-9.05
319.221	-8.62
319.59	-8.26
319.958	-8.18
320.327	-7.93
320.695	-7.69
321.063	-7.48
321.432	-7.02
321.8	-6.42
322.168	-5.42
322.536	-4.19
322.905	-3.06
323.273	-2.67
323.641	-2.53
324.009	-2.37
324.377	-1.82
324.745	-1.4
325.113	-1.11
325.481	-0.84
325.849	-0.43
326.216	-0.07
326.584	0.25
326.952	0.58
327.32	0.91
327.687	1.34
328.055	1.8
328.423	2.04
328.79	2.33
329.158	2.38
329.525	2.4
329.893	2.35
330.26	2.27
330.628	2.38
330.995	2.74
331.362	3.1
331.73	3.6
332.097	3.83
332.464	4.24
332.831	4.7
333.199	5.03
333.566	5.2
333.933	5.14
334.3	5.18
334.667	5.29
335.034	5.43
335.401	5.46
335.768	5.52
336.135	5.62
336.502	5.78
336.868	6.11
337.235	6.4
337.602	6.69
337.969	7
338.335	7.23
338.702	7.44
339.069	7.67
339.435	7.72
339.802	7.76
340.168	7.9
340.535	8.02
340.901	8.03
341.267	8.18
341.634	8.53
342	8.79
342.366	9.01
342.733	9.31
343.099	9.58
343.465	9.78
343.831	10.01
344.197	10.25
344.563	10.41
344.929	10.53
345.295	10.64
345.661	10.83
346.027	10.94
346.393	11.04
346.759	11.21
347.125	11.38
347.491	11.54
347.856	11.64
348.222	11.66
348.588	11.83
348.953	11.94
349.319	11.94
349.684	12
350.05	12.07
350.415	12.22
350.781	12.54
351.146	12.76
351.512	12.86
351.877	13.01
352.242	13.12
352.608	13.3
352.973	13.38
353.338	13.38
353.703	13.53
354.068	13.73
354.433	13.97
354.798	14.09
355.164	14.27
355.528	14.34
355.893	14.54
356.258	14.71
356.623	14.81
356.988	15
357.353	15.17
357.718	15.36
358.082	15.47
358.447	15.36
358.812	15.35
359.176	15.47
359.541	15.4
359.905	15.44
360.27	15.51
360.634	15.6
360.999	15.69
361.363	15.71
361.728	15.66
362.092	15.62
362.456	15.66
362.821	15.68
363.185	15.72
363.549	15.68
363.913	15.71
364.277	15.71
364.641	15.7
365.005	15.69
365.369	15.67
365.733	15.7
366.097	15.87
366.461	15.94
366.825	15.96
367.189	16.13
367.553	16.19
367.916	16.32
368.28	16.41
368.644	16.54
369.007	16.63
369.371	16.74
369.734	16.75
370.098	16.82
370.461	16.89
370.825	17
371.188	17.11
371.552	17.19
371.915	17.31
372.278	17.41
372.642	17.49
373.005	17.58
373.368	17.66
373.731	17.68
374.094	17.67
374.457	17.75
374.82	17.77
375.183	17.76
375.546	17.75
375.909	17.73
376.272	17.69
376.635	17.66
376.998	17.64
377.361	17.7
377.723	17.74
378.086	17.79
378.449	17.87
378.811	17.92
379.174	17.96
379.537	18.04
379.899	18.13
380.262	18.23
380.624	18.19
380.987	18.23
381.349	18.22
381.711	18.27
382.074	18.27
382.436	18.31
382.798	18.36
383.16	18.31
383.522	18.36
383.884	18.4
384.247	18.5
384.609	18.57
384.971	18.53
385.333	18.51
385.695	18.54
386.056	18.47
386.418	18.45
386.78	18.45
387.142	18.33
387.504	18.23
387.865	18.1
388.227	18.1
388.589	18.01
388.95	18
389.312	17.96
389.673	17.93
390.035	17.85
390.396	17.8
390.758	17.77
391.119	17.73
391.48	17.69
391.842	17.65
392.203	17.6
392.564	17.55
392.925	17.53
393.286	17.45
393.648	17.41
394.009	17.35
394.37	17.21
394.731	17.2
395.092	17.17
395.452	17.18
395.813	17.15
396.174	17.15
396.535	17.1
396.896	17.07
397.257	17.02
397.617	17
397.978	16.99
398.338	17.01
398.699	17.01
399.06	16.96
399.42	16.87
399.781	16.81
400.141	16.76
400.501	16.68
400.862	16.65
401.222	16.62
401.582	16.62
401.943	16.66
402.303	16.66
402.663	16.63
403.023	16.57
403.383	16.58
403.743	16.52
404.103	16.53
404.463	16.54
404.823	16.54
405.183	16.51
405.543	16.52
405.903	16.49
406.262	16.46
406.622	16.48
406.982	16.47
407.342	16.5
407.701	16.56
408.061	16.59
408.42	16.59
408.78	16.59
409.139	16.56
409.499	16.54
409.858	16.53
410.217	16.54
410.577	16.53
410.936	16.49
411.295	16.46
411.655	16.42
412.014	16.33
412.373	16.26
412.732	16.22
413.091	16.16
413.45	16.1
413.809	16.02
414.168	15.86
414.527	15.76
414.886	15.62
415.245	15.48
415.603	15.39
415.962	15.25
416.321	15.11
416.679	15
417.038	14.88
417.397	14.73
417.755	14.58
418.114	14.48
418.472	14.37
418.831	14.29
419.189	14.2
419.547	14.14
419.906	14.05
420.264	13.95
420.622	13.84
420.981	13.74
421.339	13.65
421.697	13.59
422.055	13.53
422.413	13.48
422.771	13.45
423.129	13.39
423.487	13.36
423.845	13.35
424.203	13.32
424.56	13.29
424.918	13.3
425.276	13.31
425.634	13.31
425.991	13.32
426.349	13.31
426.707	13.3
427.064	13.29
427.422	13.31
427.779	13.35
428.137	13.39
428.494	13.44
428.851	13.48
429.209	13.52
429.566	13.54
429.923	13.54
430.28	13.56
430.637	13.61
430.995	13.6
431.352	13.6
431.709	13.63
432.066	13.68
432.423	13.7
432.78	13.71
433.137	13.74
433.493	13.77
433.85	13.81
434.207	13.82
434.564	13.86
434.92	13.86
435.277	13.88
435.634	13.89
435.99	13.9
436.347	13.93
436.703	13.94
437.06	13.97
437.416	14
437.773	14.01
438.129	13.99
438.485	14.02
438.841	14.04
439.198	14.03
439.554	14
439.91	13.99
440.266	13.98
440.622	13.95
440.978	13.92
441.334	13.87
441.69	13.83
442.046	13.75
442.402	13.67
442.758	13.56
443.113	13.5
443.469	13.43
443.825	13.34
444.181	13.29
444.536	13.23
444.892	13.16
445.247	13.1
445.603	13.06
445.958	13.01
446.314	12.96
446.669	12.91
447.025	12.88
447.38	12.85
447.735	12.79
448.09	12.72
448.446	12.7
448.801	12.65
449.156	12.61
449.511	12.59
449.866	12.59
450.221	12.59
450.576	12.58
450.931	12.56
451.286	12.55
451.641	12.54
451.995	12.53
452.35	12.53
452.705	12.55
453.06	12.53
453.414	12.54
453.769	12.56
454.123	12.54
454.478	12.56
454.832	12.53
455.187	12.53
455.541	12.56
455.896	12.54
456.25	12.55
456.604	12.56
456.958	12.59
457.313	12.61
457.667	12.66
458.021	12.7
458.375	12.75
458.729	12.81
459.083	12.87
459.437	12.93
459.791	12.97
460.145	13.03
460.499	13.09
460.852	13.16
461.206	13.22
461.56	13.32
461.914	13.4
462.267	13.5
462.621	13.61
462.974	13.73
463.328	13.88
463.681	14.06
464.035	14.23
464.388	14.39
464.742	14.55
465.095	14.68
465.448	14.81
465.801	14.95
466.155	15.07
466.508	15.16
466.861	15.26
467.214	15.38
467.567	15.49
467.92	15.58
468.273	15.63
468.626	15.7
468.979	15.75
469.332	15.81
469.684	15.87
470.037	15.94
470.39	15.99
470.743	16.03
471.095	16.07
471.448	16.09
471.8	16.12
472.153	16.15
472.505	16.18
472.858	16.18
473.21	16.14
473.562	16.09
473.915	16.04
474.267	15.97
474.619	15.89
474.971	15.81
475.324	15.73
475.676	15.66
476.028	15.59
476.38	15.53
476.732	15.41
477.084	15.28
477.436	15.14
477.787	15.02
478.139	14.89
478.491	14.75
478.843	14.62
479.195	14.44
479.546	14.21
479.898	13.95
480.249	13.73
480.601	13.55
480.952	13.41
481.304	13.29
481.655	13.21
482.007	13.14
482.358	13.08
482.709	13.04
483.061	13
483.412	12.96
483.763	12.93
484.114	12.91
484.465	12.89
484.816	12.88
485.167	12.87
485.518	12.86
485.869	12.88
486.22	12.89
486.571	12.92
486.922	12.97
487.272	13.02
487.623	13.1
487.974	13.21
488.324	13.33
488.675	13.45
489.025	13.57
489.376	13.68
489.726	13.8
490.077	13.91
490.427	14.02
490.778	14.16
491.128	14.31
491.478	14.49
491.828	14.71
492.179	14.94
492.529	15.18
492.879	15.42
493.229	15.64
493.579	15.88
493.929	16.1
494.279	16.31
494.629	16.57
494.979	16.89
495.328	17.24
495.678	17.64
496.028	18.05
496.378	18.42
496.727	18.8
497.077	19.15
497.426	19.49
497.776	19.83
498.125	20.15
498.475	20.45
498.824	20.76
499.174	21.06
499.523	21.37
499.872	21.7
500.221	22.03
500.571	22.41
500.92	22.79
501.269	23.14
501.618	23.48
501.967	23.83
502.316	24.16
502.665	24.49
503.014	24.82
503.363	25.13
503.711	25.44
504.06	25.71
504.409	25.97
504.758	26.25
505.106	26.51
505.455	26.76
505.803	27
506.152	27.21
506.5	27.42
506.849	27.62
507.197	27.81
507.546	28.02
507.894	28.2
508.242	28.34
508.59	28.51
508.939	28.68
509.287	28.86
509.635	29.01
509.983	29.15
510.331	29.29
510.679	29.42
511.027	29.55
511.375	29.69
511.723	29.83
512.07	29.92
512.418	30.02
512.766	30.14
513.114	30.29
513.461	30.4
513.809	30.53
514.156	30.61
514.504	30.74
514.851	30.84
515.199	30.92
515.546	31.03
515.893	31.11
516.241	31.21
516.588	31.27
516.935	31.33
517.282	31.39
517.63	31.45
517.977	31.5
518.324	31.56
518.671	31.6
519.018	31.67
519.365	31.75
519.711	31.81
520.058	31.86
520.405	31.87
520.752	31.93
521.099	31.97
521.445	32.02
521.792	32.07
522.138	32.08
522.485	32.13
522.832	32.18
523.178	32.25
523.524	32.29
523.871	32.32
524.217	32.37
524.563	32.39
524.91	32.4
525.256	32.44
525.602	32.47
525.948	32.48
526.294	32.5
526.64	32.49
526.986	32.49
527.332	32.51
527.678	32.54
528.024	32.56
528.37	32.57
528.716	32.58
529.061	32.6
529.407	32.63
529.753	32.64
530.098	32.64
530.444	32.64
530.789	32.65
531.135	32.66
531.48	32.69
531.826	32.73
532.171	32.76
532.516	32.78
532.862	32.8
533.207	32.83
533.552	32.85
533.897	32.88
534.242	32.93
534.587	32.95
534.932	32.96
535.277	32.96
535.622	32.98
535.967	33.02
536.312	33.03
536.657	33.08
537.001	33.12
537.346	33.18
537.691	33.18
538.035	33.17
538.38	33.18
538.724	33.17
539.069	33.16
539.413	33.17
539.758	33.18
540.102	33.21
540.446	33.21
540.791	33.22
541.135	33.25
541.479	33.25
541.823	33.26
542.167	33.27
542.512	33.26
542.856	33.25
543.2	33.24
543.543	33.23
543.887	33.22
544.231	33.24
544.575	33.25
544.919	33.29
545.262	33.34
545.606	33.38
545.95	33.4
546.293	33.43
546.637	33.44
546.98	33.46
547.324	33.48
547.667	33.51
548.011	33.51
548.354	33.48
548.697	33.49
549.04	33.49
549.384	33.47
549.727	33.51
550.07	33.54
550.413	33.55
550.756	33.56
551.099	33.59
551.442	33.56
551.785	33.55
552.128	33.54
552.47	33.52
552.813	33.51
553.156	33.48
553.499	33.48
553.841	33.47
554.184	33.44
554.526	33.45
554.869	33.44
555.211	33.45
555.554	33.45
555.896	33.42
556.238	33.42
556.581	33.42
556.923	33.37
557.265	33.34
557.607	33.32
557.949	33.29
558.291	33.28
558.633	33.26
558.975	33.27
559.317	33.25
559.659	33.23
560.001	33.21
560.343	33.18
560.685	33.13
561.026	33.09
561.368	33.04
561.71	32.98
562.051	32.94
562.393	32.96
562.734	32.9
563.076	32.9
563.417	32.83
563.759	32.8
564.1	32.79
564.441	32.8
564.782	32.77
565.124	32.75
565.465	32.71
565.806	32.67
566.147	32.65
566.488	32.63
566.829	32.64
567.17	32.61
567.511	32.6
567.851	32.62
568.192	32.62
568.533	32.65
568.874	32.65
569.214	32.65
569.555	32.63
569.895	32.66
570.236	32.64
570.576	32.7
570.917	32.67
571.257	32.67
571.598	32.65
571.938	32.66
572.278	32.66
572.618	32.65
572.959	32.65
573.299	32.63
573.639	32.65
573.979	32.63
574.319	32.63
574.659	32.62
574.999	32.61
575.339	32.59
575.678	32.61
576.018	32.59
576.358	32.55
576.698	32.48
577.037	32.45
577.377	32.44
577.716	32.41
578.056	32.41
578.395	32.4
578.735	32.4
579.074	32.37
579.413	32.35
579.753	32.31
580.092	32.3
580.431	32.27
580.77	32.28
581.109	32.28
581.448	32.26
581.787	32.2
582.126	32.14
582.465	32.16
582.804	32.13
583.143	32.08
583.482	32.06
583.82	32.1
584.159	32.06
584.498	32.02
584.836	31.95
585.175	31.94
585.514	31.91
585.852	31.91
586.19	31.92
586.529	31.93
586.867	31.94
587.205	31.92
587.544	31.96
587.882	31.9
588.22	31.86
588.558	31.82
588.896	31.86
589.234	31.88
589.572	31.82
589.91	31.78
590.248	31.85
590.586	31.87
590.924	31.84
591.262	31.86
591.599	31.89
591.937	31.91
592.275	31.87
592.612	31.89
592.95	31.83
593.287	31.78
593.625	31.76
593.962	31.73
594.299	31.76
594.637	31.73
594.974	31.73
595.311	31.74
595.648	31.77
595.985	31.76
596.322	31.74
596.659	31.75
596.996	31.78
597.333	31.71
597.67	31.67
598.007	31.64
598.344	31.63
598.681	31.59
599.017	31.53
599.354	31.55
599.691	31.49
600.027	31.48
600.364	31.51
600.7	31.51
601.037	31.53
601.373	31.51
601.71	31.52
602.046	31.52
602.382	31.49
602.718	31.56
603.054	31.56
603.391	31.54
603.727	31.54
604.063	31.53
604.399	31.54
604.735	31.57
605.071	31.61
605.406	31.62
605.742	31.63
606.078	31.68
606.414	31.67
606.749	31.69
607.085	31.67
607.421	31.67
607.756	31.64
608.092	31.64
608.427	31.61
608.762	31.61
609.098	31.61
609.433	31.61
609.768	31.54
610.104	31.52
610.439	31.53
610.774	31.51
611.109	31.48
611.444	31.44
611.779	31.41
612.114	31.38
612.449	31.3
612.784	31.29
613.118	31.26
613.453	31.2
613.788	31.17
614.123	31.18
614.457	31.16
614.792	31.13
615.126	31.1
615.461	31.11
615.795	31.04
616.13	30.97
616.464	30.97
616.798	30.89
617.132	30.89
617.467	30.89
617.801	30.88
618.135	30.88
618.469	30.97
618.803	30.93
619.137	30.89
619.471	30.99
619.805	30.96
620.139	30.88
620.472	30.9
620.806	30.89
621.14	30.88
621.473	30.85
621.807	30.84
622.141	30.79
622.474	30.71
622.808	30.71
623.141	30.71
623.474	30.72
623.808	30.81
624.141	30.86
624.474	30.87
624.807	30.85
625.141	30.86
625.474	30.85
625.807	30.89
626.14	30.91
626.473	30.92
626.806	30.93
627.138	30.99
627.471	30.99
627.804	31.01
628.137	30.99
628.469	30.97
628.802	30.94
629.135	30.94
629.467	30.95
629.8	30.97
630.132	30.99
630.465	30.93
630.797	30.93
631.129	30.86
631.461	30.86
631.794	30.86
632.126	30.83
632.458	30.84
632.79	30.82
633.122	30.83
633.454	30.78
633.786	30.83
634.118	30.82
634.45	30.81
634.781	30.8
635.113	30.83
635.445	30.83
635.777	30.88
636.108	30.91
636.44	30.88
636.771	30.86
637.103	30.82
637.434	30.81
637.765	30.74
638.097	30.72
638.428	30.69
638.759	30.73
639.09	30.74
639.422	30.69
639.753	30.66
640.084	30.64
640.415	30.64
640.746	30.63
641.077	30.59
641.407	30.57
641.738	30.59
642.069	30.52
642.4	30.61
642.73	30.57
643.061	30.56
643.392	30.59
