Data from pcis_p_m4_p1_Reflection_3.txt Node
Date: Wed Jul 12 17:56:50 ART 2017
User: rodoncho
Spectrometer: USB2E3644
Trigger mode: 4
Integration Time (sec): 6.000000E-2
Scans to average: 10
Electric dark correction enabled: true
Nonlinearity correction enabled: false
Boxcar width: 10
XAxis mode: Wavelengths
Number of Pixels in Spectrum: 2048
>>>>>Begin Spectral Data<<<<<
178.315	112.38
178.696	151.16
179.076	124.35
179.457	97.26
179.838	121.25
180.218	-183.72
180.599	61.32
180.979	-166.67
181.36	40.62
181.74	57.73
182.121	-167.5
182.501	81.75
182.881	73.59
183.262	51.57
183.642	-23.37
184.022	-1581.25
184.402	249.43
184.783	153.4
185.163	150.17
185.543	142.51
185.923	141.57
186.303	151.41
186.683	155.87
187.063	155.44
187.443	152.33
187.823	157.17
188.203	166.06
188.583	159.44
188.963	149.34
189.343	145.47
189.723	150.35
190.102	145.72
190.482	142.74
190.862	143.83
191.242	145.83
191.621	145.76
192.001	141.15
192.38	142.18
192.76	139.08
193.14	133.48
193.519	129.73
193.898	128.38
194.278	125.89
194.657	125.35
195.037	118.39
195.416	114.14
195.795	113.95
196.175	114.01
196.554	113.37
196.933	116.81
197.312	118.11
197.692	116.98
198.071	116.12
198.45	116.38
198.829	117.71
199.208	118.99
199.587	119.13
199.966	119.44
200.345	119.02
200.724	121.34
201.103	124.26
201.482	125.68
201.86	124.92
202.239	123.62
202.618	121.9
202.997	125.36
203.375	128.89
203.754	128.51
204.133	127.96
204.511	128.68
204.89	126.21
205.269	124.3
205.647	123.74
206.026	125.44
206.404	123.89
206.782	121.07
207.161	118.85
207.539	118.9
207.918	118.74
208.296	118.71
208.674	119.58
209.052	118.31
209.431	117.77
209.809	119.47
210.187	120.4
210.565	122.5
210.943	122.74
211.321	122.77
211.699	122.77
212.077	123.01
212.455	123.21
212.833	122.89
213.211	122.82
213.589	124.04
213.967	122.87
214.345	125.25
214.722	126.09
215.1	125.66
215.478	124.36
215.855	124.48
216.233	124.23
216.611	124.33
216.988	124.83
217.366	125.51
217.743	124.58
218.121	126.03
218.498	125.29
218.876	123.94
219.253	123.92
219.631	124.86
220.008	124.03
220.385	123.39
220.762	125.57
221.14	126.23
221.517	124.78
221.894	124.88
222.271	124.53
222.648	125.85
223.025	126.37
223.402	127.11
223.78	128.05
224.157	128.32
224.533	128.03
224.91	128.3
225.287	128.99
225.664	130.62
226.041	129.35
226.418	129.56
226.795	129.89
227.171	128.45
227.548	126.89
227.925	127.12
228.301	127.5
228.678	128.25
229.055	127.52
229.431	127.06
229.808	126.91
230.184	126.51
230.561	126.3
230.937	126.62
231.313	127.63
231.69	127.56
232.066	128.45
232.442	128.56
232.819	128.68
233.195	127.68
233.571	127.41
233.947	127.58
234.323	127.76
234.699	128.24
235.075	128.31
235.451	130.03
235.827	131.76
236.203	133.54
236.579	132.87
236.955	134.27
237.331	135.68
237.707	139.87
238.083	144.22
238.459	148.88
238.834	156.66
239.21	161.71
239.586	168.8
239.961	175.16
240.337	178.36
240.713	182.93
241.088	188.92
241.464	190.48
241.839	200.42
242.215	215.95
242.59	236.81
242.965	283.62
243.341	383.08
243.716	618.36
244.091	1335.06
244.467	11903.75
244.842	-1920.2
245.217	-900.1
245.592	-774.26
245.967	-680.71
246.343	-726.42
246.718	-843.37
247.093	-777.71
247.468	-718.61
247.843	-684.98
248.218	-541.23
248.593	-444.13
248.967	-365.43
249.342	-326.85
249.717	-321.05
250.092	-324.89
250.467	-337.18
250.841	-411.23
251.216	-675.73
251.591	-1629.79
251.965	7317.97
252.34	1528.5
252.714	1016.74
253.089	717.09
253.463	673.36
253.838	627.85
254.212	688.49
254.587	897.23
254.961	1370.7
255.335	14972.58
255.71	-1002.32
256.084	-394.78
256.458	-235.13
256.832	-174.07
257.206	-146.58
257.581	-134.17
257.955	-128.75
258.329	-122.33
258.703	-114.14
259.077	-105.48
259.451	-101.92
259.825	-96.81
260.199	-92.95
260.572	-90.16
260.946	-86.21
261.32	-83.42
261.694	-79.99
262.068	-78.14
262.441	-77.14
262.815	-76.61
263.189	-77.64
263.562	-82
263.936	-92.98
264.309	-109.03
264.683	-127.35
265.056	-138.81
265.43	-141.46
265.803	-138.12
266.176	-135.41
266.55	-135.01
266.923	-133.3
267.296	-128
267.67	-121.48
268.043	-111.06
268.416	-103.04
268.789	-92.97
269.162	-83.94
269.535	-77.99
269.908	-74.06
270.281	-71.34
270.654	-70.89
271.027	-72.95
271.4	-74.32
271.773	-76
272.146	-75.32
272.519	-72.22
272.891	-70.66
273.264	-70.25
273.637	-68.62
274.01	-69.22
274.382	-68.46
274.755	-67.65
275.127	-66.82
275.5	-67.66
275.872	-68.99
276.245	-68.83
276.617	-70.9
276.99	-74.37
277.362	-78.02
277.734	-79.2
278.107	-78.55
278.479	-75.88
278.851	-72.14
279.223	-68.64
279.596	-66.69
279.968	-66.19
280.34	-66.17
280.712	-64.14
281.084	-60.35
281.456	-55.94
281.828	-50.61
282.2	-46.42
282.572	-42.95
282.944	-40.45
283.315	-38.83
283.687	-37.5
284.059	-36.98
284.431	-36.3
284.802	-35.38
285.174	-33.9
285.546	-32.59
285.917	-31.67
286.289	-30.12
286.66	-28.97
287.032	-28.3
287.403	-27.21
287.775	-26.41
288.146	-25.81
288.518	-25
288.889	-24.64
289.26	-25.31
289.632	-26.19
290.003	-27.21
290.374	-28.64
290.745	-29.11
291.116	-28.84
291.487	-28.05
291.858	-26.91
292.229	-25.73
292.6	-24.39
292.971	-22.91
293.342	-20.93
293.713	-19.26
294.084	-18.21
294.455	-17.52
294.826	-16.82
295.196	-16.62
295.567	-16.38
295.938	-16.2
296.308	-16.37
296.679	-15.74
297.05	-14.84
297.42	-14.15
297.791	-12.86
298.161	-11.58
298.532	-11
298.902	-10.44
299.272	-9.83
299.643	-9.07
300.013	-8.46
300.383	-8
300.754	-7.46
301.124	-7.6
301.494	-7.32
301.864	-7.45
302.234	-6.97
302.604	-6.62
302.974	-6.1
303.344	-5.74
303.714	-5.41
304.084	-4.42
304.454	-3.88
304.824	-3.11
305.194	-2.08
305.563	-1.58
305.933	-0.62
306.303	0.54
306.673	1.29
307.042	1.96
307.412	2.59
307.781	3.49
308.151	4.35
308.521	4.9
308.89	5.44
309.259	5.74
309.629	6.65
309.998	6.96
310.368	7.22
310.737	7.76
311.106	8.28
311.475	8.91
311.845	9.09
312.214	9.36
312.583	9.51
312.952	9.98
313.321	10.25
313.69	10.09
314.059	9.67
314.428	9.6
314.797	9.4
315.166	9.14
315.535	8.68
315.904	8.27
316.272	8.39
316.641	8.23
317.01	8.25
317.379	7.9
317.747	7.97
318.116	8.14
318.484	8.01
318.853	8.39
319.221	8.72
319.59	8.97
319.958	9.12
320.327	9.22
320.695	9.11
321.063	9.46
321.432	9.8
321.8	10.49
322.168	11.26
322.536	12.31
322.905	13.14
323.273	13.73
323.641	14.18
324.009	14.08
324.377	14.64
324.745	14.86
325.113	15.18
325.481	15.81
325.849	16.19
326.216	16.78
326.584	17.11
326.952	17.18
327.32	17.46
327.687	17.94
328.055	18.35
328.423	18.62
328.79	18.79
329.158	18.96
329.525	19.33
329.893	19.42
330.26	19.19
330.628	19.11
330.995	19.28
331.362	19.51
331.73	20.11
332.097	20.32
332.464	20.63
332.831	20.93
333.199	21.01
333.566	21.22
333.933	21.36
334.3	21.37
334.667	21.6
335.034	21.8
335.401	21.77
335.768	21.77
336.135	22.01
336.502	22.21
336.868	22.61
337.235	22.77
337.602	23.08
337.969	23.41
338.335	23.82
338.702	24.22
339.069	24.47
339.435	24.5
339.802	24.57
340.168	24.76
340.535	24.88
340.901	24.96
341.267	25.12
341.634	25.21
342	25.4
342.366	25.63
342.733	25.76
343.099	26.07
343.465	26.36
343.831	26.59
344.197	26.72
344.563	26.74
344.929	26.89
345.295	27.05
345.661	27.42
346.027	27.51
346.393	27.46
346.759	27.52
347.125	27.61
347.491	27.7
347.856	27.9
348.222	28.11
348.588	28.34
348.953	28.36
349.319	28.65
349.684	28.81
350.05	28.79
350.415	29.02
350.781	29.04
351.146	29.15
351.512	29.1
351.877	29.31
352.242	29.4
352.608	29.48
352.973	29.47
353.338	29.45
353.703	29.6
354.068	29.91
354.433	30.13
354.798	30.41
355.164	30.67
355.528	30.7
355.893	30.83
356.258	30.91
356.623	31.12
356.988	31.28
357.353	31.5
357.718	31.68
358.082	31.83
358.447	31.93
358.812	32.05
359.176	32.3
359.541	32.3
359.905	32.44
360.27	32.49
360.634	32.64
360.999	32.7
361.363	32.87
361.728	32.84
362.092	32.89
362.456	32.92
362.821	32.98
363.185	33.08
363.549	33.17
363.913	33.28
364.277	33.34
364.641	33.32
365.005	33.46
365.369	33.65
365.733	33.7
366.097	33.95
366.461	34.08
366.825	34.13
367.189	34.35
367.553	34.59
367.916	34.85
368.28	35.05
368.644	35.22
369.007	35.26
369.371	35.46
369.734	35.57
370.098	35.73
370.461	35.85
370.825	36.03
371.188	36.19
371.552	36.31
371.915	36.5
372.278	36.61
372.642	36.74
373.005	36.84
373.368	36.98
373.731	37.06
374.094	37.21
374.457	37.28
374.82	37.29
375.183	37.25
375.546	37.29
375.909	37.35
376.272	37.4
376.635	37.53
376.998	37.6
377.361	37.73
377.723	37.82
378.086	37.96
378.449	38
378.811	38.15
379.174	38.25
379.537	38.33
379.899	38.47
380.262	38.49
380.624	38.57
380.987	38.64
381.349	38.7
381.711	38.7
382.074	38.83
382.436	38.97
382.798	39.16
383.16	39.21
383.522	39.3
383.884	39.4
384.247	39.51
384.609	39.59
384.971	39.67
385.333	39.74
385.695	39.77
386.056	39.92
386.418	39.94
386.78	40.05
387.142	40.1
387.504	40.14
387.865	40.15
388.227	40.24
388.589	40.28
388.95	40.35
389.312	40.45
389.673	40.52
390.035	40.54
390.396	40.56
390.758	40.66
391.119	40.7
391.48	40.78
391.842	40.78
392.203	40.84
392.564	40.9
392.925	40.91
393.286	40.94
393.648	40.95
394.009	40.94
394.37	40.95
394.731	41.04
395.092	41.1
395.452	41.21
395.813	41.25
396.174	41.34
396.535	41.35
396.896	41.37
397.257	41.41
397.617	41.53
397.978	41.61
398.338	41.66
398.699	41.77
399.06	41.84
399.42	41.86
399.781	41.9
400.141	41.88
400.501	41.98
400.862	42.05
401.222	42.13
401.582	42.18
401.943	42.2
402.303	42.23
402.663	42.28
403.023	42.27
403.383	42.29
403.743	42.27
404.103	42.35
404.463	42.39
404.823	42.46
405.183	42.41
405.543	42.45
405.903	42.49
406.262	42.46
406.622	42.44
406.982	42.49
407.342	42.46
407.701	42.47
408.061	42.43
408.42	42.43
408.78	42.38
409.139	42.39
409.499	42.41
409.858	42.42
410.217	42.42
410.577	42.47
410.936	42.5
411.295	42.58
411.655	42.56
412.014	42.55
412.373	42.5
412.732	42.51
413.091	42.46
413.45	42.39
413.809	42.36
414.168	42.31
414.527	42.26
414.886	42.27
415.245	42.29
415.603	42.26
415.962	42.19
416.321	42.14
416.679	42.07
417.038	41.97
417.397	41.92
417.755	41.84
418.114	41.78
418.472	41.69
418.831	41.62
419.189	41.58
419.547	41.57
419.906	41.52
420.264	41.43
420.622	41.39
420.981	41.36
421.339	41.32
421.697	41.27
422.055	41.21
422.413	41.15
422.771	41.07
423.129	41.02
423.487	41.02
423.845	40.96
424.203	40.93
424.56	40.91
424.918	40.84
425.276	40.78
425.634	40.75
425.991	40.72
426.349	40.65
426.707	40.59
427.064	40.49
427.422	40.44
427.779	40.38
428.137	40.27
428.494	40.15
428.851	40.08
429.209	39.97
429.566	39.89
429.923	39.79
430.28	39.73
430.637	39.67
430.995	39.52
431.352	39.48
431.709	39.4
432.066	39.33
432.423	39.26
432.78	39.23
433.137	39.12
433.493	39.03
433.85	38.95
434.207	38.86
434.564	38.74
434.92	38.62
435.277	38.52
435.634	38.43
435.99	38.3
436.347	38.16
436.703	38.01
437.06	37.85
437.416	37.75
437.773	37.62
438.129	37.49
438.485	37.4
438.841	37.27
439.198	37.18
439.554	37.07
439.91	36.97
440.266	36.82
440.622	36.69
440.978	36.56
441.334	36.42
441.69	36.27
442.046	36.12
442.402	35.95
442.758	35.74
443.113	35.58
443.469	35.4
443.825	35.25
444.181	35.12
444.536	35.01
444.892	34.87
445.247	34.72
445.603	34.61
445.958	34.49
446.314	34.39
446.669	34.28
447.025	34.16
447.38	34.03
447.735	33.93
448.09	33.81
448.446	33.66
448.801	33.53
449.156	33.37
449.511	33.22
449.866	33.07
450.221	32.95
450.576	32.79
450.931	32.63
451.286	32.45
451.641	32.28
451.995	32.1
452.35	31.9
452.705	31.75
453.06	31.6
453.414	31.45
453.769	31.27
454.123	31.1
454.478	30.95
454.832	30.8
455.187	30.61
455.541	30.41
455.896	30.16
456.25	29.94
456.604	29.76
456.958	29.59
457.313	29.44
457.667	29.29
458.021	29.13
458.375	29.01
458.729	28.91
459.083	28.79
459.437	28.68
459.791	28.6
460.145	28.48
460.499	28.35
460.852	28.25
461.206	28.15
461.56	28.05
461.914	27.93
462.267	27.81
462.621	27.69
462.974	27.57
463.328	27.48
463.681	27.33
464.035	27.18
464.388	27
464.742	26.85
465.095	26.69
465.448	26.57
465.801	26.43
466.155	26.27
466.508	26.15
466.861	26.02
467.214	25.88
467.567	25.76
467.92	25.65
468.273	25.52
468.626	25.38
468.979	25.26
469.332	25.12
469.684	24.98
470.037	24.86
470.39	24.74
470.743	24.62
471.095	24.47
471.448	24.33
471.8	24.23
472.153	24.1
472.505	23.99
472.858	23.84
473.21	23.69
473.562	23.53
473.915	23.39
474.267	23.25
474.619	23.09
474.971	22.97
475.324	22.82
475.676	22.68
476.028	22.54
476.38	22.38
476.732	22.26
477.084	22.14
477.436	21.99
477.787	21.81
478.139	21.66
478.491	21.53
478.843	21.35
479.195	21.17
479.546	20.94
479.898	20.66
480.249	20.45
480.601	20.26
480.952	20.12
481.304	19.99
481.655	19.87
482.007	19.77
482.358	19.67
482.709	19.57
483.061	19.47
483.412	19.38
483.763	19.29
484.114	19.19
484.465	19.08
484.816	19
485.167	18.93
485.518	18.85
485.869	18.8
486.22	18.75
486.571	18.7
486.922	18.64
487.272	18.56
487.623	18.42
487.974	18.27
488.324	18.12
488.675	17.99
489.025	17.89
489.376	17.82
489.726	17.74
490.077	17.69
490.427	17.64
490.778	17.58
491.128	17.5
491.478	17.44
491.828	17.38
492.179	17.3
492.529	17.24
492.879	17.18
493.229	17.09
493.579	17.02
493.929	16.94
494.279	16.87
494.629	16.8
494.979	16.74
495.328	16.66
495.678	16.58
496.028	16.5
496.378	16.45
496.727	16.37
497.077	16.3
497.426	16.24
497.776	16.16
498.125	16.1
498.475	16.04
498.824	15.99
499.174	15.94
499.523	15.89
499.872	15.82
500.221	15.74
500.571	15.68
500.92	15.61
501.269	15.56
501.618	15.49
501.967	15.43
502.316	15.37
502.665	15.31
503.014	15.25
503.363	15.2
503.711	15.14
504.06	15.07
504.409	14.98
504.758	14.89
505.106	14.81
505.455	14.73
505.803	14.68
506.152	14.6
506.5	14.52
506.849	14.44
507.197	14.38
507.546	14.33
507.894	14.25
508.242	14.19
508.59	14.11
508.939	14.06
509.287	14
509.635	13.93
509.983	13.88
510.331	13.83
510.679	13.77
511.027	13.71
511.375	13.69
511.723	13.64
512.07	13.6
512.418	13.57
512.766	13.55
513.114	13.51
513.461	13.46
513.809	13.42
514.156	13.36
514.504	13.31
514.851	13.26
515.199	13.19
515.546	13.13
515.893	13.07
516.241	13.04
516.588	12.97
516.935	12.92
517.282	12.88
517.63	12.84
517.977	12.8
518.324	12.76
518.671	12.7
519.018	12.68
519.365	12.65
519.711	12.61
520.058	12.54
520.405	12.49
520.752	12.46
521.099	12.42
521.445	12.38
521.792	12.33
522.138	12.26
522.485	12.22
522.832	12.17
523.178	12.13
523.524	12.08
523.871	12.05
524.217	11.99
524.563	11.9
524.91	11.81
525.256	11.71
525.602	11.64
525.948	11.57
526.294	11.51
526.64	11.45
526.986	11.42
527.332	11.39
527.678	11.35
528.024	11.33
528.37	11.3
528.716	11.27
529.061	11.25
529.407	11.22
529.753	11.18
530.098	11.13
530.444	11.09
530.789	11.06
531.135	11.03
531.48	11.02
531.826	11.01
532.171	10.98
532.516	10.97
532.862	10.93
533.207	10.91
533.552	10.88
533.897	10.86
534.242	10.84
534.587	10.81
534.932	10.79
535.277	10.77
535.622	10.75
535.967	10.74
536.312	10.71
536.657	10.69
537.001	10.66
537.346	10.63
537.691	10.58
538.035	10.51
538.38	10.45
538.724	10.38
539.069	10.33
539.413	10.29
539.758	10.25
540.102	10.24
540.446	10.19
540.791	10.18
541.135	10.16
541.479	10.13
541.823	10.12
542.167	10.11
542.512	10.08
542.856	10.04
543.2	10.03
543.543	10
543.887	9.97
544.231	9.97
544.575	9.94
544.919	9.93
545.262	9.93
545.606	9.93
545.95	9.93
546.293	9.92
546.637	9.91
546.98	9.9
547.324	9.87
547.667	9.88
548.011	9.84
548.354	9.81
548.697	9.78
549.04	9.75
549.384	9.71
549.727	9.68
550.07	9.67
550.413	9.65
550.756	9.62
551.099	9.59
551.442	9.54
551.785	9.51
552.128	9.49
552.47	9.44
552.813	9.39
553.156	9.38
553.499	9.35
553.841	9.32
554.184	9.28
554.526	9.26
554.869	9.19
555.211	9.16
555.554	9.13
555.896	9.11
556.238	9.07
556.581	9.05
556.923	9.01
557.265	8.97
557.607	8.91
557.949	8.87
558.291	8.83
558.633	8.81
558.975	8.79
559.317	8.76
559.659	8.72
560.001	8.69
560.343	8.63
560.685	8.59
561.026	8.53
561.368	8.49
561.71	8.41
562.051	8.39
562.393	8.39
562.734	8.34
563.076	8.32
563.417	8.29
563.759	8.26
564.1	8.25
564.441	8.22
564.782	8.19
565.124	8.15
565.465	8.12
565.806	8.07
566.147	8.02
566.488	7.98
566.829	7.93
567.17	7.91
567.511	7.87
567.851	7.85
568.192	7.87
568.533	7.84
568.874	7.84
569.214	7.8
569.555	7.74
569.895	7.73
570.236	7.68
570.576	7.64
570.917	7.59
571.257	7.54
571.598	7.49
571.938	7.47
572.278	7.44
572.618	7.43
572.959	7.41
573.299	7.37
573.639	7.34
573.979	7.34
574.319	7.32
574.659	7.31
574.999	7.28
575.339	7.22
575.678	7.2
576.018	7.13
576.358	7.08
576.698	7.05
577.037	7
577.377	6.97
577.716	6.95
578.056	6.92
578.395	6.87
578.735	6.83
579.074	6.79
579.413	6.72
579.753	6.64
580.092	6.6
580.431	6.57
580.77	6.55
581.109	6.5
581.448	6.45
581.787	6.37
582.126	6.29
582.465	6.25
582.804	6.19
583.143	6.17
583.482	6.12
583.82	6.08
584.159	6.06
584.498	5.99
584.836	5.93
585.175	5.89
585.514	5.89
585.852	5.9
586.19	5.89
586.529	5.9
586.867	5.91
587.205	5.9
587.544	5.92
587.882	5.88
588.22	5.85
588.558	5.85
588.896	5.86
589.234	5.87
589.572	5.85
589.91	5.82
590.248	5.81
590.586	5.84
590.924	5.83
591.262	5.82
591.599	5.83
591.937	5.84
592.275	5.86
592.612	5.83
592.95	5.79
593.287	5.79
593.625	5.79
593.962	5.78
594.299	5.79
594.637	5.77
594.974	5.75
595.311	5.75
595.648	5.73
595.985	5.71
596.322	5.68
596.659	5.68
596.996	5.67
597.333	5.64
597.67	5.62
598.007	5.59
598.344	5.57
598.681	5.52
599.017	5.49
599.354	5.44
599.691	5.41
600.027	5.39
600.364	5.35
600.7	5.33
601.037	5.32
601.373	5.3
601.71	5.31
602.046	5.33
602.382	5.34
602.718	5.34
603.054	5.33
603.391	5.33
603.727	5.33
604.063	5.32
604.399	5.31
604.735	5.29
605.071	5.29
605.406	5.29
605.742	5.32
606.078	5.33
606.414	5.33
606.749	5.35
607.085	5.32
607.421	5.33
607.756	5.29
608.092	5.25
608.427	5.19
608.762	5.15
609.098	5.09
609.433	5.04
609.768	5
610.104	4.98
610.439	4.96
610.774	4.93
611.109	4.89
611.444	4.89
611.779	4.87
612.114	4.82
612.449	4.77
612.784	4.71
613.118	4.67
613.453	4.64
613.788	4.58
614.123	4.51
614.457	4.44
614.792	4.39
615.126	4.35
615.461	4.31
615.795	4.27
616.13	4.27
616.464	4.23
616.798	4.21
617.132	4.21
617.467	4.21
617.801	4.16
618.135	4.16
618.469	4.11
618.803	4.07
619.137	4.07
619.471	4.07
619.805	4.06
620.139	4.02
620.472	3.98
620.806	3.91
621.14	3.9
621.473	3.89
621.807	3.86
622.141	3.84
622.474	3.83
622.808	3.79
623.141	3.79
623.474	3.8
623.808	3.82
624.141	3.8
624.474	3.78
624.807	3.82
625.141	3.83
625.474	3.84
625.807	3.87
626.14	3.87
626.473	3.87
626.806	3.88
627.138	3.85
627.471	3.83
627.804	3.86
628.137	3.86
628.469	3.82
628.802	3.82
629.135	3.79
629.467	3.81
629.8	3.79
630.132	3.76
630.465	3.74
630.797	3.69
631.129	3.66
631.461	3.64
631.794	3.59
632.126	3.55
632.458	3.55
632.79	3.55
633.122	3.53
633.454	3.53
633.786	3.53
634.118	3.55
634.45	3.57
634.781	3.53
635.113	3.52
635.445	3.53
635.777	3.53
636.108	3.52
636.44	3.47
636.771	3.45
637.103	3.42
637.434	3.37
637.765	3.37
638.097	3.35
638.428	3.33
638.759	3.28
639.09	3.26
639.422	3.21
639.753	3.14
640.084	3.1
640.415	3.04
640.746	3.02
641.077	2.96
641.407	2.92
641.738	2.91
642.069	2.89
642.4	2.89
642.73	2.86
643.061	2.88
643.392	2.92
643.722	2.99
644.053	2.99
644.383	3.02
644.713	2.96
645.044	2.93
645.374	2.91
645.704	2.91
646.034	2.9
646.365	2.92
646.695	2.94
647.025	2.93
647.355	2.93
647.685	2.9
648.015	2.96
648.344	2.98
648.674	2.97
649.004	2.96
649.334	2.97
649.663	2.97
649.993	3
650.323	2.98
650.652	2.9
650.982	2.85
