Data from pcis_p_h3_p4_Reflection_1.txt Node
Date: Wed Jul 12 17:53:59 ART 2017
User: rodoncho
Spectrometer: USB2E3644
Trigger mode: 4
Integration Time (sec): 6.000000E-2
Scans to average: 10
Electric dark correction enabled: true
Nonlinearity correction enabled: false
Boxcar width: 10
XAxis mode: Wavelengths
Number of Pixels in Spectrum: 2048
>>>>>Begin Spectral Data<<<<<
178.315	53.71
178.696	49.41
179.076	62.48
179.457	67.64
179.838	94.49
180.218	23.86
180.599	-1371.43
180.979	-328.57
181.36	-61.31
181.74	-130.43
182.121	442.11
182.501	91.56
182.881	82.13
183.262	74.64
183.642	0
184.022	72.93
184.402	81.13
184.783	98.69
185.163	100.7
185.543	98.5
185.923	90.44
186.303	87.36
186.683	86.97
187.063	89.46
187.443	91.58
187.823	96.16
188.203	92.36
188.583	94.48
188.963	97.43
189.343	91.63
189.723	91.58
190.102	94.59
190.482	94.81
190.862	94.66
191.242	95.44
191.621	94.66
192.001	93.13
192.38	94.07
192.76	90.29
193.14	90.06
193.519	91.28
193.898	95.42
194.278	97.73
194.657	98.13
195.037	97.77
195.416	97.57
195.795	97.25
196.175	99.07
196.554	98.98
196.933	99.37
197.312	103.57
197.692	103.88
198.071	105.01
198.45	106.65
198.829	108.48
199.208	109.57
199.587	110.71
199.966	111.43
200.345	112.81
200.724	113.45
201.103	113.9
201.482	114.02
201.86	112.6
202.239	113.22
202.618	112.44
202.997	112.54
203.375	112.43
203.754	111.6
204.133	110.21
204.511	108.86
204.89	110.37
205.269	109.85
205.647	108.38
206.026	108.23
206.404	107.18
206.782	105.76
207.161	104.18
207.539	103.53
207.918	102.81
208.296	101.32
208.674	102.57
209.052	104.05
209.431	104.05
209.809	103.2
210.187	102.68
210.565	103.88
210.943	105.66
211.321	106.67
211.699	107.35
212.077	106.45
212.455	105.81
212.833	103.59
213.211	102.18
213.589	104.33
213.967	104.79
214.345	106.22
214.722	105.14
215.1	105.39
215.478	105.39
215.855	106.66
216.233	106.83
216.611	106.12
216.988	104.41
217.366	104.59
217.743	105.6
218.121	105.11
218.498	104.21
218.876	102.55
219.253	102.21
219.631	102.32
220.008	104.42
220.385	106.59
220.762	107.72
221.14	108.58
221.517	107.07
221.894	106.8
222.271	105.8
222.648	106.34
223.025	105.96
223.402	105.86
223.78	105.56
224.157	105.77
224.533	106.14
224.91	107.17
225.287	105.97
225.664	105.5
226.041	105.62
226.418	105.6
226.795	106.85
227.171	107.42
227.548	108.34
227.925	108.21
228.301	109.32
228.678	108.72
229.055	108
229.431	108.3
229.808	107.48
230.184	108.25
230.561	109.62
230.937	110.31
231.313	111.63
231.69	111.07
232.066	110.95
232.442	111.64
232.819	112.12
233.195	114
233.571	114.2
233.947	114.09
234.323	114.43
234.699	112.83
235.075	111.96
235.451	111.5
235.827	112.09
236.203	110.16
236.579	110.35
236.955	110.38
237.331	110.76
237.707	113.6
238.083	115.67
238.459	119.02
238.834	125.32
239.21	130.72
239.586	136.15
239.961	141.36
240.337	143.18
240.713	145.4
241.088	146.26
241.464	149.66
241.839	156.81
242.215	165.88
242.59	182.74
242.965	210.16
243.341	263.87
243.716	355.11
244.091	529.22
244.467	821.64
244.842	1814.74
245.217	-18079.25
245.592	-4512.56
245.967	-3315.36
246.343	-4973.6
246.718	-11804.82
247.093	-20489.36
247.468	-20451.06
247.843	-4054.39
248.218	-1668.85
248.593	-960.84
248.967	-664.21
249.342	-576.6
249.717	-598.15
250.092	-637.72
250.467	-738.07
250.841	-1102.65
251.216	-9016.82
251.591	1426.22
251.965	718.05
252.34	552.41
252.714	476.74
253.089	396.96
253.463	386.47
253.838	389.89
254.212	411.55
254.587	448.3
254.961	529.24
255.335	788.06
255.71	2157.11
256.084	-1189.77
256.458	-438.85
256.832	-290
257.206	-227.6
257.581	-198.52
257.955	-184.09
258.329	-174.84
258.703	-164.83
259.077	-157.46
259.451	-148.78
259.825	-142.18
260.199	-135.67
260.572	-132.67
260.946	-125.61
261.32	-120.74
261.694	-115.89
262.068	-111.8
262.441	-109.32
262.815	-105.7
263.189	-106.15
263.562	-111.7
263.936	-127.04
264.309	-149.72
264.683	-176.22
265.056	-196.22
265.43	-204.1
265.803	-198.33
266.176	-189.25
266.55	-186.05
266.923	-179.48
267.296	-170.13
267.67	-159.12
268.043	-147.85
268.416	-135.44
268.789	-123.22
269.162	-112.11
269.535	-105.52
269.908	-101.3
270.281	-99.15
270.654	-100.61
271.027	-102.86
271.4	-104.85
271.773	-105.17
272.146	-104.11
272.519	-99.07
272.891	-96.92
273.264	-96.16
273.637	-97.21
274.01	-98.32
274.382	-97.85
274.755	-96.44
275.127	-96.95
275.5	-97.73
275.872	-96.78
276.245	-96.37
276.617	-99.14
276.99	-104.32
277.362	-108.45
277.734	-109.87
278.107	-107.12
278.479	-102.58
278.851	-98.13
279.223	-93.41
279.596	-90.65
279.968	-90.23
280.34	-91.29
280.712	-89.06
281.084	-84.09
281.456	-77.02
281.828	-70.69
282.2	-65.35
282.572	-60.37
282.944	-56.72
283.315	-54.88
283.687	-54.1
284.059	-54.35
284.431	-53.52
284.802	-52.23
285.174	-50.72
285.546	-48.93
285.917	-48.66
286.289	-47.78
286.66	-47.05
287.032	-47.5
287.403	-46.98
287.775	-46.36
288.146	-46.04
288.518	-45.79
288.889	-45.78
289.26	-46.95
289.632	-47.96
290.003	-49.52
290.374	-51.89
290.745	-52.75
291.116	-52.9
291.487	-51.8
291.858	-50.47
292.229	-49.62
292.6	-47.64
292.971	-45.81
293.342	-44.05
293.713	-41.57
294.084	-40
294.455	-38.96
294.826	-37.47
295.196	-37.29
295.567	-37.11
295.938	-36.74
296.308	-36.58
296.679	-35.96
297.05	-35.24
297.42	-34.71
297.791	-33.5
298.161	-32.31
298.532	-31.95
298.902	-31.37
299.272	-30.93
299.643	-30.18
300.013	-29.58
300.383	-29.29
300.754	-29.13
301.124	-29.56
301.494	-29.92
301.864	-29.84
302.234	-29.97
302.604	-29.97
302.974	-29.54
303.344	-29.22
303.714	-28.91
304.084	-28.31
304.454	-27.94
304.824	-26.82
305.194	-25.91
305.563	-25.32
305.933	-24.26
306.303	-23.02
306.673	-22.62
307.042	-22.31
307.412	-21.61
307.781	-20.57
308.151	-19.66
308.521	-18.84
308.89	-17.78
309.259	-17.1
309.629	-16.77
309.998	-16.15
310.368	-16.05
310.737	-15.95
311.106	-15.28
311.475	-14.55
311.845	-14.06
312.214	-13.58
312.583	-13.46
312.952	-13.4
313.321	-13.38
313.69	-13.48
314.059	-13.67
314.428	-13.43
314.797	-13.58
315.166	-14.2
315.535	-14.78
315.904	-15.37
316.272	-15.86
316.641	-16.56
317.01	-16.82
317.379	-16.83
317.747	-16.55
318.116	-16.16
318.484	-15.72
318.853	-15.61
319.221	-15.85
319.59	-15.61
319.958	-15.1
320.327	-14.62
320.695	-13.92
321.063	-13.52
321.432	-12.87
321.8	-12.47
322.168	-11.54
322.536	-10.59
322.905	-9.65
323.273	-9.24
323.641	-8.83
324.009	-8.68
324.377	-8.19
324.745	-7.88
325.113	-7.56
325.481	-7.36
325.849	-6.86
326.216	-6.35
326.584	-5.93
326.952	-5.25
327.32	-4.66
327.687	-4.25
328.055	-3.86
328.423	-3.81
328.79	-3.46
329.158	-3.4
329.525	-2.9
329.893	-2.8
330.26	-2.84
330.628	-2.7
330.995	-2.14
331.362	-1.77
331.73	-1.19
332.097	-0.67
332.464	-0.28
332.831	0.03
333.199	0.42
333.566	0.72
333.933	0.87
334.3	1.02
334.667	1.1
335.034	1.17
335.401	1.24
335.768	1.24
336.135	1.64
336.502	1.94
336.868	2.29
337.235	2.51
337.602	2.83
337.969	3.24
338.335	3.55
338.702	3.88
339.069	4.2
339.435	4.5
339.802	4.54
340.168	4.8
340.535	5.09
340.901	5.14
341.267	5.26
341.634	5.47
342	5.79
342.366	6.12
342.733	6.36
343.099	6.55
343.465	6.81
343.831	6.93
344.197	6.96
344.563	6.94
344.929	7.08
345.295	7.26
345.661	7.47
346.027	7.67
346.393	7.58
346.759	7.61
347.125	7.55
347.491	7.75
347.856	7.79
348.222	7.84
348.588	7.91
348.953	7.93
349.319	8.1
349.684	8.11
350.05	8.18
350.415	8.29
350.781	8.44
351.146	8.47
351.512	8.57
351.877	8.85
352.242	8.97
352.608	8.97
352.973	9.04
353.338	9.05
353.703	9.09
354.068	9.26
354.433	9.48
354.798	9.82
355.164	9.88
355.528	9.98
355.893	10.04
356.258	10.29
356.623	10.47
356.988	10.59
357.353	10.81
357.718	11.02
358.082	11.13
358.447	11.14
358.812	11.29
359.176	11.36
359.541	11.32
359.905	11.52
360.27	11.71
360.634	11.74
360.999	11.8
361.363	11.93
361.728	11.99
362.092	12.04
362.456	11.98
362.821	12.06
363.185	12.19
363.549	12.31
363.913	12.39
364.277	12.41
364.641	12.47
365.005	12.51
365.369	12.5
365.733	12.54
366.097	12.69
366.461	12.75
366.825	12.85
367.189	13.04
367.553	13.18
367.916	13.27
368.28	13.47
368.644	13.73
369.007	13.83
369.371	13.98
369.734	14.07
370.098	14.25
370.461	14.38
370.825	14.45
371.188	14.61
371.552	14.73
371.915	14.86
372.278	15.01
372.642	15.15
373.005	15.22
373.368	15.32
373.731	15.37
374.094	15.42
374.457	15.51
374.82	15.55
375.183	15.55
375.546	15.67
375.909	15.66
376.272	15.64
376.635	15.66
376.998	15.68
377.361	15.75
377.723	15.82
378.086	15.92
378.449	16.02
378.811	16.08
379.174	16.09
379.537	16.18
379.899	16.3
380.262	16.26
380.624	16.31
380.987	16.38
381.349	16.45
381.711	16.6
382.074	16.68
382.436	16.81
382.798	16.82
383.16	16.86
383.522	16.97
383.884	17
384.247	17.17
384.609	17.25
384.971	17.29
385.333	17.29
385.695	17.3
386.056	17.36
386.418	17.34
386.78	17.41
387.142	17.38
387.504	17.34
387.865	17.4
388.227	17.45
388.589	17.48
388.95	17.49
389.312	17.46
389.673	17.48
390.035	17.47
390.396	17.48
390.758	17.46
391.119	17.41
391.48	17.44
391.842	17.39
392.203	17.39
392.564	17.38
392.925	17.38
393.286	17.36
393.648	17.35
394.009	17.35
394.37	17.31
394.731	17.26
395.092	17.26
395.452	17.3
395.813	17.3
396.174	17.29
396.535	17.3
396.896	17.26
397.257	17.22
397.617	17.2
397.978	17.25
398.338	17.27
398.699	17.32
399.06	17.32
399.42	17.28
399.781	17.27
400.141	17.25
400.501	17.25
400.862	17.27
401.222	17.26
401.582	17.29
401.943	17.31
402.303	17.34
402.663	17.32
403.023	17.27
403.383	17.27
403.743	17.28
404.103	17.33
404.463	17.39
404.823	17.42
405.183	17.44
405.543	17.43
405.903	17.45
406.262	17.46
406.622	17.49
406.982	17.55
407.342	17.61
407.701	17.64
408.061	17.65
408.42	17.65
408.78	17.68
409.139	17.65
409.499	17.64
409.858	17.71
410.217	17.78
410.577	17.83
410.936	17.83
411.295	17.83
411.655	17.77
412.014	17.71
412.373	17.68
412.732	17.62
413.091	17.58
413.45	17.49
413.809	17.45
414.168	17.35
414.527	17.25
414.886	17.14
415.245	17.07
415.603	16.98
415.962	16.88
416.321	16.77
416.679	16.69
417.038	16.6
417.397	16.47
417.755	16.31
418.114	16.21
418.472	16.13
418.831	16.06
419.189	15.99
419.547	15.93
419.906	15.87
420.264	15.8
420.622	15.71
420.981	15.66
421.339	15.61
421.697	15.55
422.055	15.51
422.413	15.48
422.771	15.45
423.129	15.44
423.487	15.44
423.845	15.42
424.203	15.42
424.56	15.41
424.918	15.42
425.276	15.48
425.634	15.5
425.991	15.51
426.349	15.53
426.707	15.57
427.064	15.58
427.422	15.62
427.779	15.69
428.137	15.77
428.494	15.84
428.851	15.87
429.209	15.93
429.566	15.96
429.923	15.98
430.28	15.99
430.637	16.02
430.995	16.02
431.352	16.04
431.709	16.06
432.066	16.1
432.423	16.12
432.78	16.13
433.137	16.15
433.493	16.2
433.85	16.23
434.207	16.23
434.564	16.26
434.92	16.27
435.277	16.28
435.634	16.28
435.99	16.28
436.347	16.29
436.703	16.29
437.06	16.31
437.416	16.32
437.773	16.33
438.129	16.33
438.485	16.38
438.841	16.38
439.198	16.4
439.554	16.38
439.91	16.4
440.266	16.39
440.622	16.38
440.978	16.34
441.334	16.29
441.69	16.25
442.046	16.18
442.402	16.12
442.758	16.05
443.113	16
443.469	15.94
443.825	15.9
444.181	15.87
444.536	15.83
444.892	15.79
445.247	15.75
445.603	15.71
445.958	15.66
446.314	15.62
446.669	15.57
447.025	15.54
447.38	15.48
447.735	15.43
448.09	15.38
448.446	15.34
448.801	15.31
449.156	15.28
449.511	15.27
449.866	15.26
450.221	15.26
450.576	15.24
450.931	15.24
451.286	15.24
451.641	15.25
451.995	15.23
452.35	15.24
452.705	15.26
453.06	15.26
453.414	15.28
453.769	15.29
454.123	15.29
454.478	15.31
454.832	15.32
455.187	15.31
455.541	15.3
455.896	15.32
456.25	15.32
456.604	15.34
456.958	15.37
457.313	15.4
457.667	15.43
458.021	15.47
458.375	15.52
458.729	15.56
459.083	15.59
459.437	15.66
459.791	15.7
460.145	15.78
460.499	15.86
460.852	15.93
461.206	16
461.56	16.06
461.914	16.13
462.267	16.24
462.621	16.35
462.974	16.51
463.328	16.65
463.681	16.82
464.035	16.98
464.388	17.14
464.742	17.28
465.095	17.43
465.448	17.59
465.801	17.72
466.155	17.82
466.508	17.92
466.861	18.03
467.214	18.13
467.567	18.2
467.92	18.26
468.273	18.34
468.626	18.41
468.979	18.49
469.332	18.57
469.684	18.63
470.037	18.72
470.39	18.75
470.743	18.8
471.095	18.85
471.448	18.9
471.8	18.94
472.153	18.97
472.505	18.98
472.858	18.96
473.21	18.92
473.562	18.88
473.915	18.87
474.267	18.79
474.619	18.73
474.971	18.65
475.324	18.59
475.676	18.5
476.028	18.45
476.38	18.36
476.732	18.25
477.084	18.16
477.436	18.03
477.787	17.92
478.139	17.81
478.491	17.7
478.843	17.57
479.195	17.4
479.546	17.21
479.898	16.96
480.249	16.77
480.601	16.61
480.952	16.49
481.304	16.4
481.655	16.34
482.007	16.28
482.358	16.23
482.709	16.18
483.061	16.15
483.412	16.12
483.763	16.09
484.114	16.08
484.465	16.07
484.816	16.08
485.167	16.07
485.518	16.06
485.869	16.06
486.22	16.07
486.571	16.1
486.922	16.14
487.272	16.21
487.623	16.29
487.974	16.4
488.324	16.51
488.675	16.62
489.025	16.73
489.376	16.83
489.726	16.94
490.077	17.04
490.427	17.14
490.778	17.26
491.128	17.4
491.478	17.58
491.828	17.75
492.179	17.92
492.529	18.14
492.879	18.37
493.229	18.58
493.579	18.79
493.929	19
494.279	19.19
494.629	19.41
494.979	19.65
495.328	19.95
495.678	20.31
496.028	20.64
496.378	20.96
496.727	21.28
497.077	21.56
497.426	21.85
497.776	22.13
498.125	22.39
498.475	22.64
498.824	22.88
499.174	23.13
499.523	23.38
499.872	23.61
500.221	23.86
500.571	24.14
500.92	24.39
501.269	24.64
501.618	24.9
501.967	25.15
502.316	25.42
502.665	25.68
503.014	25.92
503.363	26.13
503.711	26.36
504.06	26.56
504.409	26.77
504.758	26.93
505.106	27.12
505.455	27.31
505.803	27.46
506.152	27.57
506.5	27.7
506.849	27.82
507.197	27.94
507.546	28.07
507.894	28.19
508.242	28.34
508.59	28.43
508.939	28.53
509.287	28.62
509.635	28.73
509.983	28.8
510.331	28.86
510.679	28.96
511.027	29.02
511.375	29.09
511.723	29.17
512.07	29.26
512.418	29.31
512.766	29.37
513.114	29.45
513.461	29.55
513.809	29.65
514.156	29.72
514.504	29.79
514.851	29.83
515.199	29.88
515.546	29.92
515.893	29.98
516.241	30
516.588	30.06
516.935	30.06
517.282	30.11
517.63	30.14
517.977	30.16
518.324	30.19
518.671	30.22
519.018	30.24
519.365	30.27
519.711	30.31
520.058	30.33
520.405	30.38
520.752	30.37
521.099	30.38
521.445	30.4
521.792	30.4
522.138	30.45
522.485	30.49
522.832	30.51
523.178	30.58
523.524	30.62
523.871	30.63
524.217	30.69
524.563	30.7
524.91	30.72
525.256	30.77
525.602	30.81
525.948	30.79
526.294	30.74
526.64	30.71
526.986	30.69
527.332	30.69
527.678	30.66
528.024	30.66
528.37	30.65
528.716	30.65
529.061	30.66
529.407	30.65
529.753	30.66
530.098	30.65
530.444	30.64
530.789	30.64
531.135	30.63
531.48	30.63
531.826	30.63
532.171	30.62
532.516	30.59
532.862	30.57
533.207	30.61
533.552	30.64
533.897	30.67
534.242	30.7
534.587	30.7
534.932	30.73
535.277	30.74
535.622	30.77
535.967	30.78
536.312	30.79
536.657	30.84
537.001	30.85
537.346	30.85
537.691	30.87
538.035	30.89
538.38	30.91
538.724	30.9
539.069	30.87
539.413	30.87
539.758	30.86
540.102	30.86
540.446	30.82
540.791	30.83
541.135	30.83
541.479	30.83
541.823	30.84
542.167	30.84
542.512	30.83
542.856	30.81
543.2	30.79
543.543	30.78
543.887	30.77
544.231	30.77
544.575	30.8
544.919	30.78
545.262	30.77
545.606	30.76
545.95	30.78
546.293	30.81
546.637	30.83
546.98	30.84
547.324	30.83
547.667	30.87
548.011	30.89
548.354	30.91
548.697	30.9
549.04	30.92
549.384	30.9
549.727	30.93
550.07	30.95
550.413	30.98
550.756	30.96
551.099	30.94
551.442	30.95
551.785	30.94
552.128	30.92
552.47	30.91
552.813	30.93
553.156	30.91
553.499	30.91
553.841	30.89
554.184	30.87
554.526	30.86
554.869	30.82
555.211	30.83
555.554	30.82
555.896	30.83
556.238	30.79
556.581	30.79
556.923	30.77
557.265	30.73
557.607	30.68
557.949	30.71
558.291	30.71
558.633	30.66
558.975	30.61
559.317	30.59
559.659	30.59
560.001	30.54
560.343	30.48
560.685	30.44
561.026	30.38
561.368	30.35
561.71	30.33
562.051	30.31
562.393	30.27
562.734	30.22
563.076	30.17
563.417	30.15
563.759	30.11
564.1	30.07
564.441	30.07
564.782	30.07
565.124	30.03
565.465	30
565.806	29.97
566.147	30.01
566.488	30.01
566.829	29.97
567.17	29.94
567.511	29.94
567.851	29.91
568.192	29.9
568.533	29.88
568.874	29.84
569.214	29.84
569.555	29.8
569.895	29.77
570.236	29.74
570.576	29.68
570.917	29.66
571.257	29.64
571.598	29.58
571.938	29.52
572.278	29.48
572.618	29.47
572.959	29.44
573.299	29.33
573.639	29.25
573.979	29.23
574.319	29.21
574.659	29.18
574.999	29.18
575.339	29.17
575.678	29.15
576.018	29.13
576.358	29.09
576.698	29.07
577.037	29.04
577.377	28.99
577.716	29
578.056	28.97
578.395	28.96
578.735	28.96
579.074	28.95
579.413	28.9
579.753	28.87
580.092	28.86
580.431	28.9
580.77	28.91
581.109	28.92
581.448	28.86
581.787	28.84
582.126	28.82
582.465	28.74
582.804	28.7
583.143	28.68
583.482	28.65
583.82	28.61
584.159	28.57
584.498	28.57
584.836	28.55
585.175	28.5
585.514	28.48
585.852	28.46
586.19	28.45
586.529	28.5
586.867	28.46
587.205	28.45
587.544	28.44
587.882	28.42
588.22	28.37
588.558	28.35
588.896	28.35
589.234	28.34
589.572	28.35
589.91	28.34
590.248	28.34
590.586	28.32
590.924	28.3
591.262	28.32
591.599	28.28
591.937	28.25
592.275	28.25
592.612	28.21
592.95	28.18
593.287	28.18
593.625	28.13
593.962	28.16
594.299	28.15
594.637	28.1
594.974	28.09
595.311	28.09
595.648	28.1
595.985	28.1
596.322	28.06
596.659	28.06
596.996	28.02
597.333	27.98
597.67	27.97
598.007	27.94
598.344	27.91
598.681	27.91
599.017	27.9
599.354	27.87
599.691	27.87
600.027	27.86
600.364	27.83
600.7	27.84
601.037	27.81
601.373	27.83
601.71	27.86
602.046	27.86
602.382	27.85
602.718	27.82
603.054	27.79
603.391	27.76
603.727	27.76
604.063	27.75
604.399	27.71
604.735	27.69
605.071	27.74
605.406	27.75
605.742	27.74
606.078	27.72
606.414	27.74
606.749	27.73
607.085	27.72
607.421	27.75
607.756	27.75
608.092	27.71
608.427	27.66
608.762	27.6
609.098	27.55
609.433	27.54
609.768	27.51
610.104	27.48
610.439	27.49
610.774	27.49
611.109	27.49
611.444	27.52
611.779	27.49
612.114	27.42
612.449	27.38
612.784	27.36
613.118	27.36
613.453	27.33
613.788	27.27
614.123	27.2
614.457	27.14
614.792	27.08
615.126	27.03
615.461	26.96
615.795	26.93
616.13	26.97
616.464	26.96
616.798	26.95
617.132	26.97
617.467	26.95
617.801	26.89
618.135	26.89
618.469	26.87
618.803	26.82
619.137	26.81
619.471	26.8
619.805	26.79
620.139	26.74
620.472	26.7
620.806	26.69
621.14	26.71
621.473	26.67
621.807	26.64
622.141	26.66
622.474	26.71
622.808	26.7
623.141	26.65
623.474	26.65
623.808	26.69
624.141	26.7
624.474	26.68
624.807	26.7
625.141	26.66
625.474	26.63
625.807	26.64
626.14	26.68
626.473	26.66
626.806	26.66
627.138	26.64
627.471	26.66
627.804	26.69
628.137	26.67
628.469	26.66
628.802	26.64
629.135	26.63
629.467	26.59
629.8	26.6
630.132	26.61
630.465	26.57
630.797	26.5
631.129	26.47
631.461	26.44
631.794	26.39
632.126	26.4
632.458	26.4
632.79	26.45
633.122	26.39
633.454	26.44
633.786	26.42
634.118	26.44
634.45	26.42
634.781	26.38
635.113	26.35
635.445	26.33
635.777	26.35
636.108	26.33
636.44	26.3
636.771	26.29
637.103	26.22
637.434	26.21
637.765	26.2
638.097	26.16
638.428	26.15
638.759	26.11
639.09	26.02
639.422	25.98
639.753	25.94
640.084	25.92
640.415	25.88
640.746	25.85
641.077	25.84
641.407	25.81
641.738	25.78
642.069	25.76
642.4	25.77
642.73	25.76
643.061	25.72
643.392	25.77
