Data from pcis_p_h3_p2_Reflection_2.txt Node
Date: Wed Jul 12 17:52:18 ART 2017
User: rodoncho
Spectrometer: USB2E3644
Trigger mode: 4
Integration Time (sec): 6.000000E-2
Scans to average: 10
Electric dark correction enabled: true
Nonlinearity correction enabled: false
Boxcar width: 10
XAxis mode: Wavelengths
Number of Pixels in Spectrum: 2048
>>>>>Begin Spectral Data<<<<<
178.315	-32.97
178.696	-28.46
179.076	-4.47
179.457	39.78
179.838	13.33
180.218	-5.8
180.599	20.18
180.979	-16.67
181.36	102.56
181.74	-93.94
182.121	41.67
182.501	101.39
182.881	107.84
183.262	109.52
183.642	333.33
184.022	89.39
184.402	112.28
184.783	74.91
185.163	75.15
185.543	72.4
185.923	75.79
186.303	87.86
186.683	89.63
187.063	105.92
187.443	115.75
187.823	107.44
188.203	110.52
188.583	110.52
188.963	111.39
189.343	110.76
189.723	115.9
190.102	115.4
190.482	113.62
190.862	114.24
191.242	113.48
191.621	113.05
192.001	115.52
192.38	120.02
192.76	125.39
193.14	123.6
193.519	125.09
193.898	124.83
194.278	123.97
194.657	121.91
195.037	122.56
195.416	124.14
195.795	126.28
196.175	124.22
196.554	125.72
196.933	128.83
197.312	129.54
197.692	129.32
198.071	126.01
198.45	123.7
198.829	122.77
199.208	123.17
199.587	122.55
199.966	120.12
200.345	116.37
200.724	114.09
201.103	115.41
201.482	116.14
201.86	116.35
202.239	116.72
202.618	116.19
202.997	113.54
203.375	112.36
203.754	110.89
204.133	109.67
204.511	108.59
204.89	106.59
205.269	106.58
205.647	107.22
206.026	109.23
206.404	109.16
206.782	109.4
207.161	109.77
207.539	110.42
207.918	110.79
208.296	111.15
208.674	112.15
209.052	111.86
209.431	110.69
209.809	109.25
210.187	109.47
210.565	110.25
210.943	111.16
211.321	111.85
211.699	113.45
212.077	113.47
212.455	112.9
212.833	112.38
213.211	111.97
213.589	110.68
213.967	110.3
214.345	111.29
214.722	111.64
215.1	112.06
215.478	111.65
215.855	111.59
216.233	110.76
216.611	110.2
216.988	109.33
217.366	108.64
217.743	108.03
218.121	106.65
218.498	105.96
218.876	106.22
219.253	104.98
219.631	103.08
220.008	103.8
220.385	105.1
220.762	106.23
221.14	106.32
221.517	105.39
221.894	104.86
222.271	104.94
222.648	103.34
223.025	102.67
223.402	103.35
223.78	105.52
224.157	107.31
224.533	107.82
224.91	107.19
225.287	107.61
225.664	108.48
226.041	108.61
226.418	107.92
226.795	106.99
227.171	107.14
227.548	108.85
227.925	110.87
228.301	111.18
228.678	110.96
229.055	110
229.431	109.69
229.808	109.59
230.184	109.39
230.561	110.27
230.937	110.15
231.313	109.54
231.69	107.57
232.066	107.57
232.442	107.53
232.819	108.42
233.195	108.2
233.571	109.72
233.947	111.14
234.323	112.29
234.699	113.73
235.075	114.55
235.451	114.8
235.827	114.16
236.203	115.2
236.579	116.66
236.955	117.75
237.331	119.62
237.707	121.97
238.083	124.68
238.459	129.7
238.834	135.46
239.21	140.26
239.586	144.85
239.961	147.57
240.337	150.7
240.713	153.84
241.088	156.4
241.464	158.37
241.839	163.46
242.215	170.71
242.59	183.73
242.965	207.19
243.341	250.03
243.716	315.09
244.091	391.96
244.467	515.63
244.842	735.99
245.217	1098.37
245.592	1366.67
245.967	1611
246.343	1399.7
246.718	1270.7
247.093	1355.75
247.468	1561.06
247.843	2005.91
248.218	4296.4
248.593	-4519.05
248.967	-1552.61
249.342	-1118.78
249.717	-1205.01
250.092	-1273.54
250.467	-1593.67
250.841	-4180.7
251.216	2356.22
251.591	967.08
251.965	633.07
252.34	483.38
252.714	429.48
253.089	402.65
253.463	399.92
253.838	417.22
254.212	441.89
254.587	466.67
254.961	546.22
255.335	799.35
255.71	3612.59
256.084	-958.13
256.458	-418.55
256.832	-274.94
257.206	-225.78
257.581	-197.54
257.955	-182.51
258.329	-172.32
258.703	-161.3
259.077	-154.3
259.451	-148.5
259.825	-140.53
260.199	-136.22
260.572	-132.06
260.946	-127.57
261.32	-124.79
261.694	-121.34
262.068	-119.97
262.441	-118.02
262.815	-116.89
263.189	-117.66
263.562	-124.67
263.936	-142.77
264.309	-174.49
264.683	-213.93
265.056	-244.21
265.43	-259.4
265.803	-258.18
266.176	-248.22
266.55	-242.35
266.923	-233.01
267.296	-226.69
267.67	-212.03
268.043	-190.89
268.416	-171.82
268.789	-154.66
269.162	-136.46
269.535	-125.58
269.908	-116.16
270.281	-110.79
270.654	-110.22
271.027	-112.59
271.4	-113.88
271.773	-115.66
272.146	-114
272.519	-110.32
272.891	-107.42
273.264	-105.57
273.637	-104.28
274.01	-105.42
274.382	-104.94
274.755	-102.67
275.127	-101.65
275.5	-103.38
275.872	-102.96
276.245	-103.53
276.617	-105.05
276.99	-112.05
277.362	-115.46
277.734	-119.27
278.107	-119.4
278.479	-114.43
278.851	-109.68
279.223	-105.28
279.596	-101.51
279.968	-98.94
280.34	-99.15
280.712	-95.53
281.084	-89.55
281.456	-82.41
281.828	-75.35
282.2	-69.76
282.572	-64.95
282.944	-61.06
283.315	-58.52
283.687	-57.47
284.059	-57.25
284.431	-56.95
284.802	-55.67
285.174	-54.22
285.546	-52.27
285.917	-51.51
286.289	-50.38
286.66	-48.94
287.032	-49
287.403	-47.98
287.775	-47.16
288.146	-46.32
288.518	-46.47
288.889	-46.73
289.26	-48.2
289.632	-49.39
290.003	-50.71
290.374	-52.73
290.745	-54.37
291.116	-54.75
291.487	-53.41
291.858	-52.1
292.229	-50.83
292.6	-49.32
292.971	-48.41
293.342	-46.9
293.713	-44.7
294.084	-43.34
294.455	-42.96
294.826	-41.87
295.196	-42.37
295.567	-42.54
295.938	-42.32
296.308	-41.78
296.679	-40.9
297.05	-40.17
297.42	-39.38
297.791	-37.99
298.161	-36.52
298.532	-35.49
298.902	-34.95
299.272	-34.76
299.643	-34.19
300.013	-33.6
300.383	-33.23
300.754	-32.71
301.124	-33.05
301.494	-33.81
301.864	-34.2
302.234	-33.71
302.604	-33.64
302.974	-32.9
303.344	-32.62
303.714	-32.6
304.084	-32.17
304.454	-32.01
304.824	-30.91
305.194	-29.89
305.563	-29.19
305.933	-28.37
306.303	-26.78
306.673	-25.66
307.042	-24.92
307.412	-23.93
307.781	-22.85
308.151	-21.82
308.521	-21.15
308.89	-20.39
309.259	-19.61
309.629	-18.95
309.998	-18.86
310.368	-18.57
310.737	-18.21
311.106	-17.95
311.475	-17.47
311.845	-17.11
312.214	-16.77
312.583	-16.55
312.952	-16.16
313.321	-15.86
313.69	-15.94
314.059	-16.44
314.428	-16.61
314.797	-16.95
315.166	-17.78
315.535	-18.62
315.904	-19.12
316.272	-19.47
316.641	-19.69
317.01	-19.81
317.379	-19.93
317.747	-19.75
318.116	-19.2
318.484	-18.74
318.853	-18.09
319.221	-17.64
319.59	-17.41
319.958	-17.04
320.327	-16.58
320.695	-16.22
321.063	-15.89
321.432	-15.19
321.8	-14.33
322.168	-13.36
322.536	-12.17
322.905	-10.98
323.273	-10.3
323.641	-9.68
324.009	-9.4
324.377	-9.01
324.745	-8.69
325.113	-8.41
325.481	-8
325.849	-7.37
326.216	-6.88
326.584	-6.32
326.952	-6.07
327.32	-5.81
327.687	-5.4
328.055	-5.02
328.423	-4.74
328.79	-4.59
329.158	-4.53
329.525	-4.19
329.893	-3.93
330.26	-3.98
330.628	-4.08
330.995	-3.75
331.362	-3.42
331.73	-2.86
332.097	-2.55
332.464	-2.05
332.831	-1.71
333.199	-1.39
333.566	-1.21
333.933	-1.12
334.3	-1.19
334.667	-0.89
335.034	-0.68
335.401	-0.75
335.768	-0.81
336.135	-0.86
336.502	-0.66
336.868	-0.28
337.235	-0.22
337.602	-0.06
337.969	0.1
338.335	0.48
338.702	0.75
339.069	0.86
339.435	0.96
339.802	1.11
340.168	1.22
340.535	1.32
340.901	1.43
341.267	1.46
341.634	1.7
342	1.95
342.366	2.12
342.733	2.27
343.099	2.53
343.465	2.84
343.831	3.08
344.197	3.22
344.563	3.26
344.929	3.39
345.295	3.51
345.661	3.64
346.027	3.79
346.393	3.82
346.759	3.89
347.125	4
347.491	4.12
347.856	4.16
348.222	4.16
348.588	4.24
348.953	4.32
349.319	4.39
349.684	4.45
350.05	4.61
350.415	4.85
350.781	5
351.146	5.11
351.512	5.14
351.877	5.21
352.242	5.36
352.608	5.39
352.973	5.42
353.338	5.49
353.703	5.55
354.068	5.68
354.433	5.84
354.798	5.93
355.164	6.07
355.528	6.12
355.893	6.2
356.258	6.33
356.623	6.45
356.988	6.52
357.353	6.66
357.718	6.67
358.082	6.69
358.447	6.72
358.812	6.65
359.176	6.73
359.541	6.75
359.905	6.81
360.27	6.88
360.634	7.01
360.999	7.11
361.363	7.21
361.728	7.25
362.092	7.27
362.456	7.33
362.821	7.35
363.185	7.45
363.549	7.57
363.913	7.56
364.277	7.58
364.641	7.66
365.005	7.69
365.369	7.7
365.733	7.84
366.097	8.01
366.461	8.17
366.825	8.21
367.189	8.35
367.553	8.44
367.916	8.54
368.28	8.55
368.644	8.63
369.007	8.65
369.371	8.71
369.734	8.76
370.098	8.84
370.461	8.94
370.825	9
371.188	9.1
371.552	9.22
371.915	9.25
372.278	9.31
372.642	9.49
373.005	9.62
373.368	9.59
373.731	9.58
374.094	9.59
374.457	9.67
374.82	9.72
375.183	9.72
375.546	9.76
375.909	9.85
376.272	9.91
376.635	9.95
376.998	10.02
377.361	10.06
377.723	10.16
378.086	10.27
378.449	10.34
378.811	10.43
379.174	10.43
379.537	10.48
379.899	10.54
380.262	10.54
380.624	10.58
380.987	10.59
381.349	10.63
381.711	10.71
382.074	10.79
382.436	10.9
382.798	10.94
383.16	10.89
383.522	10.93
383.884	10.99
384.247	11.06
384.609	11.09
384.971	11.12
385.333	11.08
385.695	11.04
386.056	11.06
386.418	11.05
386.78	11.06
387.142	11.07
387.504	11.08
387.865	11.05
388.227	11.06
388.589	11.13
388.95	11.14
389.312	11.12
389.673	11.06
390.035	11.01
390.396	10.98
390.758	10.96
391.119	10.92
391.48	10.87
391.842	10.82
392.203	10.8
392.564	10.78
392.925	10.73
393.286	10.71
393.648	10.67
394.009	10.64
394.37	10.64
394.731	10.62
395.092	10.58
395.452	10.58
395.813	10.57
396.174	10.53
396.535	10.49
396.896	10.44
397.257	10.44
397.617	10.43
397.978	10.45
398.338	10.5
398.699	10.48
399.06	10.48
399.42	10.45
399.781	10.43
400.141	10.43
400.501	10.44
400.862	10.44
401.222	10.4
401.582	10.41
401.943	10.41
402.303	10.41
402.663	10.4
403.023	10.36
403.383	10.33
403.743	10.32
404.103	10.35
404.463	10.4
404.823	10.42
405.183	10.4
405.543	10.42
405.903	10.41
406.262	10.42
406.622	10.4
406.982	10.4
407.342	10.42
407.701	10.42
408.061	10.41
408.42	10.38
408.78	10.39
409.139	10.39
409.499	10.37
409.858	10.41
410.217	10.4
410.577	10.42
410.936	10.39
411.295	10.36
411.655	10.29
412.014	10.22
412.373	10.18
412.732	10.12
413.091	10.05
413.45	9.98
413.809	9.93
414.168	9.85
414.527	9.78
414.886	9.67
415.245	9.58
415.603	9.47
415.962	9.39
416.321	9.31
416.679	9.22
417.038	9.14
417.397	9
417.755	8.91
418.114	8.8
418.472	8.74
418.831	8.67
419.189	8.63
419.547	8.56
419.906	8.49
420.264	8.42
420.622	8.35
420.981	8.31
421.339	8.25
421.697	8.19
422.055	8.15
422.413	8.13
422.771	8.1
423.129	8.09
423.487	8.08
423.845	8.07
424.203	8.06
424.56	8.06
424.918	8.07
425.276	8.11
425.634	8.14
425.991	8.16
426.349	8.18
426.707	8.2
427.064	8.21
427.422	8.24
427.779	8.28
428.137	8.32
428.494	8.37
428.851	8.41
429.209	8.46
429.566	8.51
429.923	8.52
430.28	8.53
430.637	8.55
430.995	8.56
431.352	8.57
431.709	8.59
432.066	8.62
432.423	8.64
432.78	8.66
433.137	8.68
433.493	8.7
433.85	8.75
434.207	8.72
434.564	8.75
434.92	8.76
435.277	8.77
435.634	8.77
435.99	8.77
436.347	8.77
436.703	8.78
437.06	8.79
437.416	8.8
437.773	8.82
438.129	8.81
438.485	8.83
438.841	8.84
439.198	8.85
439.554	8.83
439.91	8.83
440.266	8.8
440.622	8.76
440.978	8.73
441.334	8.67
441.69	8.65
442.046	8.6
442.402	8.52
442.758	8.46
443.113	8.42
443.469	8.36
443.825	8.33
444.181	8.29
444.536	8.25
444.892	8.21
445.247	8.19
445.603	8.17
445.958	8.13
446.314	8.09
446.669	8.05
447.025	8.01
447.38	7.98
447.735	7.95
448.09	7.93
448.446	7.91
448.801	7.88
449.156	7.87
449.511	7.87
449.866	7.89
450.221	7.92
450.576	7.96
450.931	7.98
451.286	7.98
451.641	7.97
451.995	7.98
452.35	8
452.705	8
453.06	8.01
453.414	8.03
453.769	8.03
454.123	8.05
454.478	8.05
454.832	8.05
455.187	8.05
455.541	8.04
455.896	8.02
456.25	8.02
456.604	8.04
456.958	8.04
457.313	8.04
457.667	8.07
458.021	8.07
458.375	8.12
458.729	8.19
459.083	8.23
459.437	8.29
459.791	8.33
460.145	8.36
460.499	8.41
460.852	8.45
461.206	8.5
461.56	8.57
461.914	8.66
462.267	8.72
462.621	8.81
462.974	8.93
463.328	9.05
463.681	9.2
464.035	9.33
464.388	9.48
464.742	9.61
465.095	9.73
465.448	9.86
465.801	9.95
466.155	10.04
466.508	10.13
466.861	10.2
467.214	10.29
467.567	10.38
467.92	10.45
468.273	10.52
468.626	10.6
468.979	10.64
469.332	10.67
469.684	10.75
470.037	10.82
470.39	10.86
470.743	10.93
471.095	10.97
471.448	11.03
471.8	11.07
472.153	11.09
472.505	11.08
472.858	11.06
473.21	11.05
473.562	10.99
473.915	10.94
474.267	10.87
474.619	10.8
474.971	10.74
475.324	10.68
475.676	10.62
476.028	10.55
476.38	10.48
476.732	10.41
477.084	10.3
477.436	10.17
477.787	10.06
478.139	9.94
478.491	9.82
478.843	9.67
479.195	9.5
479.546	9.29
479.898	9.03
480.249	8.79
480.601	8.59
480.952	8.46
481.304	8.37
481.655	8.32
482.007	8.28
482.358	8.24
482.709	8.2
483.061	8.16
483.412	8.12
483.763	8.08
484.114	8.05
484.465	8.03
484.816	8.02
485.167	8.01
485.518	8.01
485.869	8.03
486.22	8.04
486.571	8.07
486.922	8.13
487.272	8.2
487.623	8.3
487.974	8.42
488.324	8.52
488.675	8.62
489.025	8.71
489.376	8.78
489.726	8.86
490.077	8.96
490.427	9.07
490.778	9.19
491.128	9.33
491.478	9.5
491.828	9.68
492.179	9.87
492.529	10.07
492.879	10.26
493.229	10.42
493.579	10.59
493.929	10.75
494.279	10.9
494.629	11.08
494.979	11.33
495.328	11.61
495.678	11.95
496.028	12.26
496.378	12.55
496.727	12.81
497.077	13.04
497.426	13.26
497.776	13.46
498.125	13.67
498.475	13.88
498.824	14.07
499.174	14.26
499.523	14.47
499.872	14.68
500.221	14.89
500.571	15.12
500.92	15.35
501.269	15.57
501.618	15.77
501.967	15.98
502.316	16.16
502.665	16.34
503.014	16.49
503.363	16.64
503.711	16.8
504.06	16.94
504.409	17.07
504.758	17.18
505.106	17.28
505.455	17.38
505.803	17.49
506.152	17.55
506.5	17.64
506.849	17.71
507.197	17.77
507.546	17.83
507.894	17.9
508.242	17.95
508.59	17.99
508.939	18.03
509.287	18.07
509.635	18.09
509.983	18.13
510.331	18.18
510.679	18.22
511.027	18.23
511.375	18.28
511.723	18.33
512.07	18.35
512.418	18.4
512.766	18.43
513.114	18.45
513.461	18.47
513.809	18.48
514.156	18.47
514.504	18.47
514.851	18.43
515.199	18.39
515.546	18.38
515.893	18.4
516.241	18.39
516.588	18.39
516.935	18.41
517.282	18.42
517.63	18.39
517.977	18.35
518.324	18.36
518.671	18.34
519.018	18.33
519.365	18.33
519.711	18.31
520.058	18.28
520.405	18.23
520.752	18.21
521.099	18.19
521.445	18.17
521.792	18.15
522.138	18.14
522.485	18.1
522.832	18.06
523.178	18.03
523.524	18
523.871	17.96
524.217	17.88
524.563	17.76
524.91	17.64
525.256	17.54
525.602	17.45
525.948	17.4
526.294	17.34
526.64	17.33
526.986	17.33
527.332	17.33
527.678	17.34
528.024	17.34
528.37	17.34
528.716	17.32
529.061	17.29
529.407	17.24
529.753	17.2
530.098	17.16
530.444	17.11
530.789	17.09
531.135	17.06
531.48	17.07
531.826	17.09
532.171	17.12
532.516	17.14
532.862	17.14
533.207	17.11
533.552	17.09
533.897	17.06
534.242	17.03
534.587	16.97
534.932	16.94
535.277	16.92
535.622	16.88
535.967	16.87
536.312	16.85
536.657	16.85
537.001	16.84
537.346	16.79
537.691	16.71
538.035	16.61
538.38	16.53
538.724	16.47
539.069	16.42
539.413	16.36
539.758	16.32
540.102	16.31
540.446	16.3
540.791	16.29
541.135	16.26
541.479	16.21
541.823	16.2
542.167	16.16
542.512	16.12
542.856	16.08
543.2	16.04
543.543	16.01
543.887	15.98
544.231	15.96
544.575	15.97
544.919	15.99
545.262	16.01
545.606	16.03
545.95	16.01
546.293	15.97
546.637	15.96
546.98	15.94
547.324	15.89
547.667	15.85
548.011	15.76
548.354	15.71
548.697	15.68
549.04	15.61
549.384	15.56
549.727	15.49
550.07	15.45
550.413	15.39
550.756	15.35
551.099	15.31
551.442	15.27
551.785	15.21
552.128	15.15
552.47	15.09
552.813	15
553.156	14.93
553.499	14.87
553.841	14.82
554.184	14.75
554.526	14.67
554.869	14.61
555.211	14.6
555.554	14.54
555.896	14.48
556.238	14.43
556.581	14.4
556.923	14.33
557.265	14.27
557.607	14.22
557.949	14.13
558.291	14.07
558.633	14.01
558.975	13.92
559.317	13.89
559.659	13.8
560.001	13.76
560.343	13.73
560.685	13.67
561.026	13.62
561.368	13.56
561.71	13.49
562.051	13.43
562.393	13.38
562.734	13.3
563.076	13.24
563.417	13.18
563.759	13.11
564.1	13.03
564.441	12.99
564.782	12.94
565.124	12.91
565.465	12.86
565.806	12.79
566.147	12.78
566.488	12.71
566.829	12.67
567.17	12.61
567.511	12.56
567.851	12.49
568.192	12.44
568.533	12.39
568.874	12.35
569.214	12.35
569.555	12.3
569.895	12.26
570.236	12.22
570.576	12.19
570.917	12.17
571.257	12.17
571.598	12.13
571.938	12.09
572.278	12.07
572.618	12.02
572.959	11.99
573.299	11.94
573.639	11.88
573.979	11.86
574.319	11.84
574.659	11.8
574.999	11.77
575.339	11.7
575.678	11.66
576.018	11.6
576.358	11.5
576.698	11.43
577.037	11.39
577.377	11.34
577.716	11.28
578.056	11.2
578.395	11.13
578.735	11.05
579.074	10.98
579.413	10.89
579.753	10.83
580.092	10.79
580.431	10.73
580.77	10.74
581.109	10.68
581.448	10.63
581.787	10.56
582.126	10.52
582.465	10.52
582.804	10.49
583.143	10.5
583.482	10.47
583.82	10.44
584.159	10.43
584.498	10.39
584.836	10.35
585.175	10.33
585.514	10.27
585.852	10.25
586.19	10.23
586.529	10.2
586.867	10.17
587.205	10.16
587.544	10.17
587.882	10.11
588.22	10.08
588.558	10.07
588.896	10.1
589.234	10.1
589.572	10.06
589.91	10.02
590.248	9.98
590.586	9.95
590.924	9.94
591.262	9.9
591.599	9.88
591.937	9.84
592.275	9.82
592.612	9.84
592.95	9.81
593.287	9.81
593.625	9.8
593.962	9.83
594.299	9.81
594.637	9.76
594.974	9.74
595.311	9.76
595.648	9.75
595.985	9.71
596.322	9.67
596.659	9.65
596.996	9.64
597.333	9.6
597.67	9.59
598.007	9.55
598.344	9.53
598.681	9.51
599.017	9.48
599.354	9.43
599.691	9.41
600.027	9.4
600.364	9.38
600.7	9.36
601.037	9.33
601.373	9.31
601.71	9.34
602.046	9.31
602.382	9.31
602.718	9.26
603.054	9.25
603.391	9.25
603.727	9.22
604.063	9.19
604.399	9.19
604.735	9.18
605.071	9.18
605.406	9.18
605.742	9.19
606.078	9.21
606.414	9.24
606.749	9.22
607.085	9.21
607.421	9.2
607.756	9.21
608.092	9.2
608.427	9.17
608.762	9.14
609.098	9.12
609.433	9.07
609.768	9.06
610.104	9.02
610.439	9.01
610.774	9.02
611.109	9.02
611.444	9.01
611.779	8.99
612.114	8.96
612.449	8.95
612.784	8.9
613.118	8.83
613.453	8.8
613.788	8.77
614.123	8.71
614.457	8.65
614.792	8.57
615.126	8.48
615.461	8.39
615.795	8.31
616.13	8.28
616.464	8.2
616.798	8.16
617.132	8.15
617.467	8.1
617.801	8.06
618.135	8.02
618.469	8
618.803	7.96
619.137	7.95
619.471	7.9
619.805	7.85
620.139	7.82
620.472	7.79
620.806	7.77
621.14	7.73
621.473	7.71
621.807	7.67
622.141	7.65
622.474	7.65
622.808	7.63
623.141	7.64
623.474	7.64
623.808	7.65
624.141	7.62
624.474	7.63
624.807	7.65
625.141	7.67
625.474	7.65
625.807	7.67
626.14	7.68
626.473	7.71
626.806	7.76
627.138	7.77
627.471	7.73
627.804	7.69
628.137	7.68
628.469	7.61
628.802	7.59
629.135	7.59
629.467	7.6
629.8	7.59
630.132	7.55
630.465	7.52
630.797	7.49
631.129	7.51
631.461	7.47
631.794	7.44
632.126	7.38
632.458	7.39
632.79	7.37
633.122	7.3
633.454	7.27
633.786	7.23
634.118	7.22
634.45	7.22
634.781	7.22
635.113	7.23
635.445	7.26
635.777	7.26
636.108	7.24
636.44	7.21
636.771	7.16
637.103	7.13
637.434	7.11
637.765	7.11
638.097	7.06
638.428	7.02
638.759	6.96
639.09	6.93
639.422	6.88
639.753	6.83
640.084	6.84
640.415	6.79
640.746	6.76
641.077	6.73
641.407	6.73
641.738	6.73
642.069	6.72
642.4	6.67
642.73	6.66
643.061	6.68
643.392	6.68
643.722	6.74
644.053	6.72
644.383	6.73
644.713	6.72
645.044	6.67
645.374	6.68
645.704	6.65
646.034	6.67
646.365	6.68
646.695	6.69
647.025	6.65
647.355	6.65
647.685	6.66
648.015	6.71
648.344	6.7
648.674	6.68
649.004	6.69
649.334	6.73
649.663	6.77
649.993	6.78
650.323	6.8
650.652	6.77
650.982	6.8
651.311	6.78
651.64	6.78
651.97	6.79
