Data from pcis_c_h2_p6_Reflection_1.txt Node
Date: Wed Jul 12 17:43:05 ART 2017
User: rodoncho
Spectrometer: USB2E3644
Trigger mode: 4
Integration Time (sec): 6.000000E-2
Scans to average: 10
Electric dark correction enabled: true
Nonlinearity correction enabled: false
Boxcar width: 10
XAxis mode: Wavelengths
Number of Pixels in Spectrum: 2048
>>>>>Begin Spectral Data<<<<<
178.315	78.52
178.696	128.57
179.076	750
179.457	519.51
179.838	267.86
180.218	-117.86
180.599	18.13
180.979	-116.67
181.36	118.55
181.74	248.57
182.121	375
182.501	63.82
182.881	42.45
183.262	-15.64
183.642	-159.28
184.022	-2019.23
184.402	1792.5
184.783	322.5
185.163	248.98
185.543	191.55
185.923	185.69
186.303	187.72
186.683	181.76
187.063	198.71
187.443	189.96
187.823	174.4
188.203	170.21
188.583	165.83
188.963	154.62
189.343	146
189.723	144.61
190.102	140.68
190.482	132.88
190.862	135.09
191.242	138.16
191.621	136.13
192.001	136.11
192.38	135.53
192.76	136.37
193.14	136.49
193.519	134.33
193.898	131.31
194.278	129.99
194.657	130.41
195.037	128.26
195.416	126.87
195.795	124.64
196.175	124.65
196.554	123.87
196.933	124.01
197.312	127.68
197.692	126.13
198.071	124.09
198.45	125.52
198.829	122.54
199.208	117.28
199.587	116.34
199.966	115.32
200.345	112.79
200.724	111.86
201.103	111.9
201.482	114.63
201.86	113.81
202.239	114.11
202.618	112.58
202.997	112
203.375	113.17
203.754	114.56
204.133	113.95
204.511	114.4
204.89	113.01
205.269	111.15
205.647	109.98
206.026	109.81
206.404	108.22
206.782	108.86
207.161	110.45
207.539	110.18
207.918	110.67
208.296	112.16
208.674	113.14
209.052	112.9
209.431	112.19
209.809	112.33
210.187	114.03
210.565	115.49
210.943	116.24
211.321	116.41
211.699	117.12
212.077	117.83
212.455	117.08
212.833	117.92
213.211	118.03
213.589	118.97
213.967	118.43
214.345	118.9
214.722	118.51
215.1	119.89
215.478	121.55
215.855	122.61
216.233	120.28
216.611	120.29
216.988	120.89
217.366	120.69
217.743	120.59
218.121	119.5
218.498	119.71
218.876	119.29
219.253	117.06
219.631	116.42
220.008	116.36
220.385	116.62
220.762	118.03
221.14	118.53
221.517	119.21
221.894	120.84
222.271	121.27
222.648	122.22
223.025	122.15
223.402	121.14
223.78	121.21
224.157	123.55
224.533	122.41
224.91	122.97
225.287	123.79
225.664	124.97
226.041	123.63
226.418	122.78
226.795	123.11
227.171	124.26
227.548	123.9
227.925	123.43
228.301	122.78
228.678	120.4
229.055	121.37
229.431	122.02
229.808	122.02
230.184	121.32
230.561	121.07
230.937	122.22
231.313	122.97
231.69	123.03
232.066	122
232.442	122.45
232.819	122.1
233.195	121.74
233.571	121.85
233.947	122.82
234.323	123.07
234.699	122.51
235.075	122.88
235.451	123.25
235.827	124.48
236.203	125.62
236.579	127.99
236.955	128.08
237.331	128.73
237.707	132
238.083	136.41
238.459	138.61
238.834	141.14
239.21	146.15
239.586	150.82
239.961	155.88
240.337	160.78
240.713	163.87
241.088	167.08
241.464	170.13
241.839	175.84
242.215	185.51
242.59	201.95
242.965	231.32
243.341	301.63
243.716	415.97
244.091	645.04
244.467	1048.3
244.842	2194.02
245.217	14151.56
245.592	-10482.56
245.967	-5471.34
246.343	-4294.81
246.718	-4466.5
247.093	-4277.83
247.468	-3835.17
247.843	-2803.99
248.218	-1712.13
248.593	-1004.7
248.967	-687.82
249.342	-565.9
249.717	-552.94
250.092	-569
250.467	-631.41
250.841	-959.68
251.216	-7531.97
251.591	1467.04
251.965	728
252.34	555.13
252.714	495.9
253.089	440.61
253.463	420.87
253.838	427.94
254.212	441.43
254.587	483.17
254.961	559.5
255.335	786.82
255.71	2655.59
256.084	-1078.41
256.458	-416.83
256.832	-264.98
257.206	-218.54
257.581	-191.47
257.955	-178.76
258.329	-163.84
258.703	-148.98
259.077	-138.33
259.451	-130.17
259.825	-121.69
260.199	-115.23
260.572	-113.58
260.946	-109.71
261.32	-107.7
261.694	-105.13
262.068	-102.2
262.441	-100.46
262.815	-98.85
263.189	-99.94
263.562	-106.18
263.936	-123.24
264.309	-153.03
264.683	-186.95
265.056	-211.56
265.43	-220.69
265.803	-217.05
266.176	-219.01
266.55	-225.83
266.923	-220.41
267.296	-211.24
267.67	-195.34
268.043	-176.76
268.416	-157.62
268.789	-138.48
269.162	-120.57
269.535	-109.84
269.908	-104.66
270.281	-100.72
270.654	-100.22
271.027	-101.43
271.4	-103.45
271.773	-103.76
272.146	-101
272.519	-96.72
272.891	-93.38
273.264	-92.46
273.637	-91.22
274.01	-91.04
274.382	-88.45
274.755	-87.16
275.127	-86.7
275.5	-87.36
275.872	-89.24
276.245	-89.48
276.617	-90.83
276.99	-95.12
277.362	-97.68
277.734	-98.16
278.107	-96.68
278.479	-92.62
278.851	-88.2
279.223	-84.11
279.596	-81.17
279.968	-79.2
280.34	-79.52
280.712	-76.72
281.084	-73.36
281.456	-68.01
281.828	-63.1
282.2	-57.96
282.572	-54.02
282.944	-50.84
283.315	-49.62
283.687	-48.63
284.059	-48.23
284.431	-48.14
284.802	-47.21
285.174	-46.21
285.546	-45
285.917	-44.78
286.289	-43.43
286.66	-42.44
287.032	-41.68
287.403	-40.33
287.775	-39.49
288.146	-39.26
288.518	-39.16
288.889	-38.65
289.26	-39.93
289.632	-40.95
290.003	-42.93
290.374	-44.66
290.745	-45.35
291.116	-44.85
291.487	-43.85
291.858	-42.82
292.229	-41.94
292.6	-40.47
292.971	-39.01
293.342	-36.83
293.713	-34.71
294.084	-33.65
294.455	-33.08
294.826	-32.34
295.196	-32.4
295.567	-32.33
295.938	-31.84
296.308	-31.76
296.679	-31.56
297.05	-30.4
297.42	-29.2
297.791	-27.86
298.161	-26.34
298.532	-25.81
298.902	-25.12
299.272	-24.33
299.643	-23.58
300.013	-22.98
300.383	-22.58
300.754	-22.47
301.124	-22.79
301.494	-22.45
301.864	-22.63
302.234	-22.64
302.604	-22.69
302.974	-22.37
303.344	-22.3
303.714	-22.06
304.084	-21.44
304.454	-20.76
304.824	-20.38
305.194	-20
305.563	-19.64
305.933	-19.01
306.303	-17.81
306.673	-17.1
307.042	-16.66
307.412	-15.81
307.781	-14.37
308.151	-13.44
308.521	-12.56
308.89	-12.2
309.259	-12.09
309.629	-11.69
309.998	-11.34
310.368	-11.08
310.737	-10.8
311.106	-10.24
311.475	-9.41
311.845	-9.19
312.214	-9.15
312.583	-8.87
312.952	-8.42
313.321	-8.01
313.69	-8.04
314.059	-8.36
314.428	-8.45
314.797	-8.66
315.166	-9.28
315.535	-9.91
315.904	-10.36
316.272	-10.76
316.641	-10.9
317.01	-10.79
317.379	-10.68
317.747	-10.45
318.116	-10.14
318.484	-9.88
318.853	-9.57
319.221	-9.48
319.59	-8.99
319.958	-8.44
320.327	-8.24
320.695	-8.03
321.063	-7.89
321.432	-7.46
321.8	-7.09
322.168	-6.55
322.536	-5.68
322.905	-4.69
323.273	-4.22
323.641	-3.64
324.009	-3.44
324.377	-3.04
324.745	-2.73
325.113	-2.64
325.481	-2.27
325.849	-1.75
326.216	-1.25
326.584	-0.82
326.952	-0.7
327.32	-0.48
327.687	-0.11
328.055	0.46
328.423	0.65
328.79	0.81
329.158	1.04
329.525	1.42
329.893	1.61
330.26	1.62
330.628	1.5
330.995	1.58
331.362	1.83
331.73	2.41
332.097	2.72
332.464	3.12
332.831	3.56
333.199	3.79
333.566	3.96
333.933	3.99
334.3	4.05
334.667	4.29
335.034	4.39
335.401	4.37
335.768	4.28
336.135	4.54
336.502	4.8
336.868	5.05
337.235	5.29
337.602	5.73
337.969	6.01
338.335	6.35
338.702	6.71
339.069	6.82
339.435	6.87
339.802	7.06
340.168	7.16
340.535	7.37
340.901	7.57
341.267	7.9
341.634	8.3
342	8.54
342.366	8.84
342.733	9
343.099	9.11
343.465	9.41
343.831	9.67
344.197	9.73
344.563	9.72
344.929	9.87
345.295	9.84
345.661	9.97
346.027	10.16
346.393	10.11
346.759	10.21
347.125	10.4
347.491	10.51
347.856	10.58
348.222	10.5
348.588	10.53
348.953	10.44
349.319	10.46
349.684	10.57
350.05	10.72
350.415	10.91
350.781	11.11
351.146	11.34
351.512	11.41
351.877	11.69
352.242	11.83
352.608	11.75
352.973	11.93
353.338	12.12
353.703	12.12
354.068	12.29
354.433	12.55
354.798	12.76
355.164	12.89
355.528	12.97
355.893	13.17
356.258	13.32
356.623	13.51
356.988	13.61
357.353	13.86
357.718	13.88
358.082	14
358.447	14.04
358.812	14.02
359.176	14.06
359.541	14.07
359.905	14.22
360.27	14.44
360.634	14.63
360.999	14.65
361.363	14.79
361.728	14.89
362.092	14.77
362.456	14.73
362.821	14.79
363.185	14.88
363.549	15.03
363.913	15.08
364.277	15.07
364.641	15.14
365.005	15.16
365.369	15.25
365.733	15.33
366.097	15.44
366.461	15.45
366.825	15.52
367.189	15.73
367.553	15.85
367.916	15.93
368.28	15.94
368.644	16.12
369.007	16.32
369.371	16.43
369.734	16.62
370.098	16.8
370.461	16.93
370.825	17.01
371.188	17.05
371.552	17.13
371.915	17.28
372.278	17.39
372.642	17.47
373.005	17.61
373.368	17.66
373.731	17.74
374.094	17.84
374.457	17.88
374.82	17.96
375.183	18
375.546	18.07
375.909	18.16
376.272	18.21
376.635	18.2
376.998	18.22
377.361	18.22
377.723	18.28
378.086	18.36
378.449	18.5
378.811	18.6
379.174	18.7
379.537	18.79
379.899	18.92
380.262	19.03
380.624	19.01
380.987	19.08
381.349	19.19
381.711	19.31
382.074	19.41
382.436	19.45
382.798	19.51
383.16	19.53
383.522	19.54
383.884	19.55
384.247	19.65
384.609	19.73
384.971	19.84
385.333	19.86
385.695	19.85
386.056	19.85
386.418	19.85
386.78	19.91
387.142	19.89
387.504	19.85
387.865	19.8
388.227	19.88
388.589	19.93
388.95	19.89
389.312	19.88
389.673	19.92
390.035	19.9
390.396	19.91
390.758	19.95
391.119	20.02
391.48	20.06
391.842	20.01
392.203	19.96
392.564	19.95
392.925	19.97
393.286	19.91
393.648	19.92
394.009	19.94
394.37	19.94
394.731	19.93
395.092	19.95
395.452	19.95
395.813	19.96
396.174	19.98
396.535	20.01
396.896	20.01
397.257	20.05
397.617	20.05
397.978	20.04
398.338	20.04
398.699	20.04
399.06	20.03
399.42	20.05
399.781	20.11
400.141	20.08
400.501	20.04
400.862	20.11
401.222	20.07
401.582	20.07
401.943	19.99
402.303	20
402.663	19.99
403.023	19.94
403.383	19.92
403.743	19.89
404.103	19.86
404.463	19.88
404.823	19.87
405.183	19.87
405.543	19.9
405.903	19.89
406.262	19.86
406.622	19.85
406.982	19.86
407.342	19.84
407.701	19.85
408.061	19.88
408.42	19.87
408.78	19.88
409.139	19.9
409.499	19.94
409.858	19.97
410.217	19.99
410.577	20.05
410.936	20.03
411.295	20.03
411.655	20.05
412.014	20.02
412.373	19.97
412.732	19.94
413.091	19.87
413.45	19.86
413.809	19.81
414.168	19.77
414.527	19.7
414.886	19.61
415.245	19.54
415.603	19.44
415.962	19.34
416.321	19.24
416.679	19.14
417.038	19.04
417.397	18.92
417.755	18.81
418.114	18.71
418.472	18.63
418.831	18.56
419.189	18.5
419.547	18.41
419.906	18.34
420.264	18.26
420.622	18.19
420.981	18.1
421.339	18.03
421.697	17.97
422.055	17.93
422.413	17.88
422.771	17.83
423.129	17.82
423.487	17.81
423.845	17.8
424.203	17.8
424.56	17.79
424.918	17.79
425.276	17.79
425.634	17.81
425.991	17.82
426.349	17.84
426.707	17.83
427.064	17.86
427.422	17.89
427.779	17.93
428.137	17.98
428.494	18.06
428.851	18.1
429.209	18.16
429.566	18.2
429.923	18.25
430.28	18.3
430.637	18.31
430.995	18.33
431.352	18.35
431.709	18.36
432.066	18.43
432.423	18.46
432.78	18.49
433.137	18.52
433.493	18.56
433.85	18.58
434.207	18.59
434.564	18.61
434.92	18.65
435.277	18.68
435.634	18.69
435.99	18.72
436.347	18.74
436.703	18.75
437.06	18.77
437.416	18.8
437.773	18.82
438.129	18.84
438.485	18.88
438.841	18.88
439.198	18.89
439.554	18.89
439.91	18.87
440.266	18.88
440.622	18.83
440.978	18.81
441.334	18.77
441.69	18.73
442.046	18.68
442.402	18.61
442.758	18.54
443.113	18.46
443.469	18.39
443.825	18.35
444.181	18.3
444.536	18.24
444.892	18.2
445.247	18.14
445.603	18.08
445.958	18.02
446.314	17.97
446.669	17.92
447.025	17.87
447.38	17.82
447.735	17.77
448.09	17.74
448.446	17.71
448.801	17.69
449.156	17.64
449.511	17.61
449.866	17.59
450.221	17.57
450.576	17.58
450.931	17.56
451.286	17.52
451.641	17.5
451.995	17.48
452.35	17.46
452.705	17.47
453.06	17.47
453.414	17.49
453.769	17.48
454.123	17.49
454.478	17.51
454.832	17.53
455.187	17.54
455.541	17.53
455.896	17.53
456.25	17.55
456.604	17.58
456.958	17.62
457.313	17.66
457.667	17.7
458.021	17.75
458.375	17.81
458.729	17.89
459.083	17.96
459.437	18.05
459.791	18.13
460.145	18.21
460.499	18.32
460.852	18.39
461.206	18.51
461.56	18.6
461.914	18.7
462.267	18.79
462.621	18.92
462.974	19.09
463.328	19.26
463.681	19.44
464.035	19.64
464.388	19.84
464.742	20.01
465.095	20.18
465.448	20.37
465.801	20.49
466.155	20.63
466.508	20.76
466.861	20.87
467.214	20.96
467.567	21.07
467.92	21.16
468.273	21.26
468.626	21.36
468.979	21.45
469.332	21.52
469.684	21.62
470.037	21.7
470.39	21.79
470.743	21.88
471.095	21.95
471.448	22.03
471.8	22.09
472.153	22.14
472.505	22.15
472.858	22.12
473.21	22.14
473.562	22.09
473.915	22.05
474.267	21.99
474.619	21.94
474.971	21.85
475.324	21.76
475.676	21.68
476.028	21.58
476.38	21.47
476.732	21.36
477.084	21.25
477.436	21.12
477.787	20.98
478.139	20.82
478.491	20.69
478.843	20.51
479.195	20.32
479.546	20.09
479.898	19.87
480.249	19.68
480.601	19.53
480.952	19.38
481.304	19.24
481.655	19.15
482.007	19.07
482.358	19.01
482.709	18.94
483.061	18.89
483.412	18.86
483.763	18.84
484.114	18.81
484.465	18.81
484.816	18.8
485.167	18.8
485.518	18.8
485.869	18.81
486.22	18.83
486.571	18.86
486.922	18.9
487.272	18.96
487.623	19.04
487.974	19.15
488.324	19.3
488.675	19.47
489.025	19.6
489.376	19.73
489.726	19.86
490.077	20
490.427	20.16
490.778	20.31
491.128	20.49
491.478	20.73
491.828	20.96
492.179	21.21
492.529	21.47
492.879	21.76
493.229	22.03
493.579	22.28
493.929	22.54
494.279	22.81
494.629	23.1
494.979	23.45
495.328	23.83
495.678	24.26
496.028	24.7
496.378	25.14
496.727	25.56
497.077	25.94
497.426	26.31
497.776	26.62
498.125	26.96
498.475	27.26
498.824	27.56
499.174	27.86
499.523	28.17
499.872	28.49
500.221	28.82
500.571	29.16
500.92	29.51
501.269	29.86
501.618	30.2
501.967	30.55
502.316	30.84
502.665	31.16
503.014	31.47
503.363	31.75
503.711	32.02
504.06	32.29
504.409	32.56
504.758	32.84
505.106	33.07
505.455	33.3
505.803	33.54
506.152	33.73
506.5	33.93
506.849	34.13
507.197	34.32
507.546	34.51
507.894	34.69
508.242	34.88
508.59	35.07
508.939	35.22
509.287	35.37
509.635	35.52
509.983	35.67
510.331	35.8
510.679	35.95
511.027	36.07
511.375	36.21
511.723	36.38
512.07	36.51
512.418	36.71
512.766	36.87
513.114	37.01
513.461	37.17
513.809	37.28
514.156	37.42
514.504	37.53
514.851	37.63
515.199	37.75
515.546	37.86
515.893	37.94
516.241	38.03
516.588	38.14
516.935	38.26
517.282	38.33
517.63	38.39
517.977	38.47
518.324	38.56
518.671	38.65
519.018	38.71
519.365	38.78
519.711	38.82
520.058	38.9
520.405	38.97
520.752	39.06
521.099	39.16
521.445	39.25
521.792	39.39
522.138	39.53
522.485	39.65
522.832	39.73
523.178	39.81
523.524	39.93
523.871	40.01
524.217	40.07
524.563	40.18
524.91	40.33
525.256	40.48
525.602	40.56
525.948	40.58
526.294	40.6
526.64	40.6
526.986	40.63
527.332	40.62
527.678	40.64
528.024	40.66
528.37	40.67
528.716	40.71
529.061	40.75
529.407	40.8
529.753	40.85
530.098	40.92
530.444	40.96
530.789	40.98
531.135	41.03
531.48	41.08
531.826	41.1
532.171	41.12
532.516	41.15
532.862	41.21
533.207	41.28
533.552	41.39
533.897	41.49
534.242	41.57
534.587	41.66
534.932	41.75
535.277	41.79
535.622	41.86
535.967	41.93
536.312	41.97
536.657	42.02
537.001	42.11
537.346	42.21
537.691	42.36
538.035	42.46
538.38	42.52
538.724	42.58
539.069	42.66
539.413	42.74
539.758	42.78
540.102	42.81
540.446	42.86
540.791	42.87
541.135	42.92
541.479	42.95
541.823	42.99
542.167	43.02
542.512	43.05
542.856	43.1
543.2	43.12
543.543	43.16
543.887	43.18
544.231	43.21
544.575	43.25
544.919	43.26
545.262	43.31
545.606	43.36
545.95	43.45
546.293	43.5
546.637	43.56
546.98	43.63
547.324	43.72
547.667	43.8
548.011	43.87
548.354	43.93
548.697	44
549.04	44.08
549.384	44.14
549.727	44.22
550.07	44.3
550.413	44.37
550.756	44.43
551.099	44.53
551.442	44.59
551.785	44.67
552.128	44.72
552.47	44.81
552.813	44.86
553.156	44.91
553.499	44.97
553.841	44.96
554.184	44.98
554.526	45.02
554.869	45.07
555.211	45.1
555.554	45.14
555.896	45.22
556.238	45.24
556.581	45.3
556.923	45.33
557.265	45.33
557.607	45.39
557.949	45.45
558.291	45.49
558.633	45.53
558.975	45.53
559.317	45.6
559.659	45.59
560.001	45.62
560.343	45.65
560.685	45.66
561.026	45.74
561.368	45.77
561.71	45.75
562.051	45.77
562.393	45.86
562.734	45.87
563.076	45.87
563.417	45.86
563.759	45.9
564.1	45.94
564.441	45.98
564.782	45.97
565.124	45.98
565.465	45.96
565.806	45.95
566.147	45.96
566.488	45.95
566.829	45.99
567.17	45.99
567.511	46.01
567.851	46.03
568.192	46.02
568.533	46.06
568.874	46.08
569.214	46.09
569.555	46.11
569.895	46.14
570.236	46.15
570.576	46.18
570.917	46.19
571.257	46.19
571.598	46.21
571.938	46.25
572.278	46.27
572.618	46.31
572.959	46.34
573.299	46.39
573.639	46.42
573.979	46.45
574.319	46.5
574.659	46.52
574.999	46.52
575.339	46.54
575.678	46.53
576.018	46.56
576.358	46.56
576.698	46.56
577.037	46.55
577.377	46.58
577.716	46.62
578.056	46.61
578.395	46.64
578.735	46.61
579.074	46.59
579.413	46.61
579.753	46.61
580.092	46.65
580.431	46.66
580.77	46.71
581.109	46.7
581.448	46.73
581.787	46.75
582.126	46.82
582.465	46.86
582.804	46.91
583.143	46.95
583.482	46.99
583.82	46.94
584.159	46.97
584.498	46.96
584.836	46.98
585.175	47.03
585.514	47.04
585.852	47.12
586.19	47.16
586.529	47.19
586.867	47.2
587.205	47.23
587.544	47.22
587.882	47.22
588.22	47.25
588.558	47.19
588.896	47.2
589.234	47.21
589.572	47.21
589.91	47.19
590.248	47.19
590.586	47.24
590.924	47.33
591.262	47.36
591.599	47.42
591.937	47.43
592.275	47.43
592.612	47.46
592.95	47.46
593.287	47.47
593.625	47.51
593.962	47.59
594.299	47.57
594.637	47.59
594.974	47.58
595.311	47.59
595.648	47.64
595.985	47.65
596.322	47.66
596.659	47.63
596.996	47.67
597.333	47.7
597.67	47.7
598.007	47.71
598.344	47.71
598.681	47.74
599.017	47.77
599.354	47.74
599.691	47.77
600.027	47.8
600.364	47.84
600.7	47.84
601.037	47.81
601.373	47.89
601.71	47.94
602.046	47.97
602.382	47.97
602.718	47.97
603.054	47.99
603.391	48.01
603.727	48.06
604.063	48.07
604.399	48.07
604.735	48.06
605.071	48.03
605.406	48.07
605.742	48.07
606.078	48.12
606.414	48.18
606.749	48.18
607.085	48.19
607.421	48.2
607.756	48.22
608.092	48.2
608.427	48.18
608.762	48.17
609.098	48.14
609.433	48.15
609.768	48.16
610.104	48.15
610.439	48.17
610.774	48.17
611.109	48.17
611.444	48.2
611.779	48.2
612.114	48.22
612.449	48.22
612.784	48.18
613.118	48.11
613.453	48.1
613.788	48.09
614.123	48.06
614.457	48.05
614.792	48.01
615.126	48.02
615.461	48.04
615.795	47.99
616.13	48.05
616.464	48.11
616.798	48.13
617.132	48.19
617.467	48.18
617.801	48.18
618.135	48.22
618.469	48.23
618.803	48.26
619.137	48.26
619.471	48.25
619.805	48.25
620.139	48.22
620.472	48.2
620.806	48.2
621.14	48.21
621.473	48.22
621.807	48.24
622.141	48.27
622.474	48.25
622.808	48.26
623.141	48.2
623.474	48.21
623.808	48.32
624.141	48.32
624.474	48.3
624.807	48.33
625.141	48.35
625.474	48.32
625.807	48.34
626.14	48.35
626.473	48.36
626.806	48.42
627.138	48.51
627.471	48.46
627.804	48.43
628.137	48.43
628.469	48.44
628.802	48.46
629.135	48.51
629.467	48.51
629.8	48.52
630.132	48.59
630.465	48.61
630.797	48.56
631.129	48.6
631.461	48.64
631.794	48.65
632.126	48.63
632.458	48.65
632.79	48.62
633.122	48.65
633.454	48.65
633.786	48.63
634.118	48.57
634.45	48.61
634.781	48.64
635.113	48.64
635.445	48.62
635.777	48.65
636.108	48.68
636.44	48.65
636.771	48.68
637.103	48.66
637.434	48.59
637.765	48.58
638.097	48.55
638.428	48.48
638.759	48.42
639.09	48.42
639.422	48.5
639.753	48.46
640.084	48.47
640.415	48.44
640.746	48.42
641.077	48.44
641.407	48.45
641.738	48.49
642.069	48.51
642.4	48.53
642.73	48.51
643.061	48.44
