Data from pcis_p_h3_p3_Reflection_1.txt Node
Date: Wed Jul 12 17:53:12 ART 2017
User: rodoncho
Spectrometer: USB2E3644
Trigger mode: 4
Integration Time (sec): 6.000000E-2
Scans to average: 10
Electric dark correction enabled: true
Nonlinearity correction enabled: false
Boxcar width: 10
XAxis mode: Wavelengths
Number of Pixels in Spectrum: 2048
>>>>>Begin Spectral Data<<<<<
178.315	-13.8
178.696	-15.28
179.076	-4.49
179.457	34.34
179.838	58.1
180.218	-777.78
180.599	-75.31
180.979	82.35
181.36	46.03
181.74	8.64
182.121	38.74
182.501	142.82
182.881	180.32
183.262	263.96
183.642	-155.86
184.022	-45.38
184.402	-7.38
184.783	39.1
185.163	48.24
185.543	50.25
185.923	59.6
186.303	57.51
186.683	53.87
187.063	62.16
187.443	64.63
187.823	67.25
188.203	70.9
188.583	69.83
188.963	69.55
189.343	68.44
189.723	67.65
190.102	69.24
190.482	76.53
190.862	79.78
191.242	82.43
191.621	81.69
192.001	80.28
192.38	82.42
192.76	82.28
193.14	84.3
193.519	86.63
193.898	87.27
194.278	91.33
194.657	94.64
195.037	95.18
195.416	97.35
195.795	99.24
196.175	101.22
196.554	103.36
196.933	104.85
197.312	106.25
197.692	110.81
198.071	112.09
198.45	109.59
198.829	110.33
199.208	108.81
199.587	108.28
199.966	109.38
200.345	108.92
200.724	108.35
201.103	108.46
201.482	110.47
201.86	110.97
202.239	109.46
202.618	109.59
202.997	110.83
203.375	111.82
203.754	112.12
204.133	111.16
204.511	110.29
204.89	110.29
205.269	110.98
205.647	109.54
206.026	108.9
206.404	109.6
206.782	108.44
207.161	107.92
207.539	108.45
207.918	108.59
208.296	108.54
208.674	109.14
209.052	109.78
209.431	108.7
209.809	107.82
210.187	107.64
210.565	106.76
210.943	105.36
211.321	104.87
211.699	105.31
212.077	106.28
212.455	105.99
212.833	104.32
213.211	103.36
213.589	103.86
213.967	103.46
214.345	103.2
214.722	103.31
215.1	103.96
215.478	104.83
215.855	104.54
216.233	104.11
216.611	104.64
216.988	103.94
217.366	103.56
217.743	103.71
218.121	105.44
218.498	106.49
218.876	106.62
219.253	108.11
219.631	108.81
220.008	109.86
220.385	111.12
220.762	112.28
221.14	112.28
221.517	112.47
221.894	113.45
222.271	114.25
222.648	114.48
223.025	115.36
223.402	115.35
223.78	115.88
224.157	117.21
224.533	117.06
224.91	116.5
225.287	117.17
225.664	117.69
226.041	116.89
226.418	116.83
226.795	115.81
227.171	113.09
227.548	112.53
227.925	112.1
228.301	112.01
228.678	111.38
229.055	112.37
229.431	112.34
229.808	111.67
230.184	110.37
230.561	110.7
230.937	110.44
231.313	110.57
231.69	111.23
232.066	110.13
232.442	109.79
232.819	109.47
233.195	109.77
233.571	110.22
233.947	110.12
234.323	109.01
234.699	110.2
235.075	111.47
235.451	110.31
235.827	109.89
236.203	110.12
236.579	112.03
236.955	113.2
237.331	115.74
237.707	119.14
238.083	123.5
238.459	126.81
238.834	132.23
239.21	137.77
239.586	142.45
239.961	149.13
240.337	154.29
240.713	161.79
241.088	164.11
241.464	168.64
241.839	176
242.215	186.25
242.59	200.88
242.965	235.38
243.341	312.69
243.716	464.16
244.091	813.21
244.467	1772.76
244.842	23694.87
245.217	-2690.56
245.592	-1827.74
245.967	-1633.33
246.343	-1747.62
246.718	-2642.03
247.093	-3217.56
247.468	-2497.76
247.843	-2000.22
248.218	-1422.91
248.593	-869.84
248.967	-612.7
249.342	-554.79
249.717	-549.97
250.092	-577.71
250.467	-639.3
250.841	-878.69
251.216	-3726.34
251.591	1724.48
251.965	782.27
252.34	556.5
252.714	470.1
253.089	399.01
253.463	389.08
253.838	395.49
254.212	417.13
254.587	480.05
254.961	597.42
255.335	957.29
255.71	-28112.12
256.084	-628.23
256.458	-317.43
256.832	-211.93
257.206	-173.93
257.581	-153.41
257.955	-142.39
258.329	-136.08
258.703	-129.11
259.077	-120.96
259.451	-114.9
259.825	-109.91
260.199	-105.91
260.572	-103.73
260.946	-98.28
261.32	-96.56
261.694	-93.06
262.068	-91.34
262.441	-88.88
262.815	-87.27
263.189	-87.09
263.562	-90.93
263.936	-103.71
264.309	-123.5
264.683	-150.1
265.056	-167.06
265.43	-180.68
265.803	-179.56
266.176	-173.06
266.55	-173.31
266.923	-173.24
267.296	-165.91
267.67	-154.84
268.043	-143.13
268.416	-129.56
268.789	-117.46
269.162	-103.74
269.535	-96.92
269.908	-91.91
270.281	-89.82
270.654	-90.19
271.027	-94.49
271.4	-96.42
271.773	-97.13
272.146	-96.27
272.519	-92.65
272.891	-90.13
273.264	-88.2
273.637	-85.79
274.01	-86.06
274.382	-84.84
274.755	-82.85
275.127	-82.57
275.5	-83.22
275.872	-82.3
276.245	-82.55
276.617	-84.69
276.99	-88.75
277.362	-90.63
277.734	-92.28
278.107	-91.3
278.479	-87.8
278.851	-82.43
279.223	-78.86
279.596	-76.21
279.968	-74.95
280.34	-75.28
280.712	-73.07
281.084	-69.11
281.456	-65.31
281.828	-60.64
282.2	-56.5
282.572	-52.84
282.944	-50.33
283.315	-49
283.687	-48.57
284.059	-48.09
284.431	-47.02
284.802	-46.41
285.174	-44.87
285.546	-43.23
285.917	-42.66
286.289	-41.29
286.66	-40.17
287.032	-40.04
287.403	-39.18
287.775	-38.6
288.146	-38.03
288.518	-37.76
288.889	-37.47
289.26	-37.9
289.632	-38.43
290.003	-39.34
290.374	-40.79
290.745	-41.63
291.116	-40.97
291.487	-39.84
291.858	-39.02
292.229	-38.54
292.6	-37.26
292.971	-36.9
293.342	-35.68
293.713	-34.2
294.084	-33.48
294.455	-32.89
294.826	-32.17
295.196	-32.54
295.567	-32.66
295.938	-31.68
296.308	-32.15
296.679	-31.64
297.05	-30.9
297.42	-30.34
297.791	-29.73
298.161	-29.02
298.532	-28.43
298.902	-28.46
299.272	-28.26
299.643	-27.63
300.013	-27.35
300.383	-27.01
300.754	-26.61
301.124	-26.66
301.494	-26.31
301.864	-26.32
302.234	-26.56
302.604	-26.78
302.974	-26.18
303.344	-25.82
303.714	-26.2
304.084	-25.29
304.454	-25.27
304.824	-24.8
305.194	-23.84
305.563	-22.94
305.933	-21.42
306.303	-19.89
306.673	-19.15
307.042	-18.55
307.412	-17.81
307.781	-16.78
308.151	-15.9
308.521	-15.26
308.89	-14.93
309.259	-14.71
309.629	-14.33
309.998	-14.09
310.368	-13.75
310.737	-13.54
311.106	-13.08
311.475	-12.54
311.845	-12.26
312.214	-11.81
312.583	-11.63
312.952	-11.78
313.321	-11.89
313.69	-12.39
314.059	-12.98
314.428	-13.12
314.797	-13.47
315.166	-14.23
315.535	-14.97
315.904	-15.59
316.272	-15.76
316.641	-15.67
317.01	-15.89
317.379	-16.12
317.747	-16.01
318.116	-15.73
318.484	-15.38
318.853	-14.8
319.221	-14.54
319.59	-14.08
319.958	-13.71
320.327	-13.59
320.695	-13.02
321.063	-12.62
321.432	-11.93
321.8	-11.26
322.168	-10.41
322.536	-9.48
322.905	-8.48
323.273	-7.55
323.641	-6.95
324.009	-6.98
324.377	-6.76
324.745	-6.36
325.113	-5.95
325.481	-5.51
325.849	-4.99
326.216	-4.44
326.584	-4.01
326.952	-3.69
327.32	-3.4
327.687	-3.14
328.055	-2.64
328.423	-2.43
328.79	-2.35
329.158	-2.34
329.525	-2.07
329.893	-1.83
330.26	-1.66
330.628	-1.57
330.995	-1.49
331.362	-1.16
331.73	-0.51
332.097	-0.13
332.464	0.1
332.831	0.39
333.199	0.76
333.566	0.82
333.933	0.67
334.3	0.53
334.667	0.67
335.034	0.81
335.401	0.92
335.768	0.87
336.135	1
336.502	1.24
336.868	1.64
337.235	1.84
337.602	2.11
337.969	2.3
338.335	2.56
338.702	2.88
339.069	3.1
339.435	3.26
339.802	3.42
340.168	3.7
340.535	3.93
340.901	3.89
341.267	4.14
341.634	4.58
342	4.94
342.366	5.16
342.733	5.32
343.099	5.57
343.465	5.93
343.831	6.14
344.197	6.35
344.563	6.34
344.929	6.46
345.295	6.55
345.661	6.7
346.027	6.87
346.393	6.93
346.759	6.86
347.125	6.84
347.491	6.9
347.856	6.97
348.222	7.11
348.588	7.33
348.953	7.37
349.319	7.49
349.684	7.53
350.05	7.65
350.415	7.89
350.781	8.03
351.146	8.16
351.512	8.31
351.877	8.47
352.242	8.72
352.608	8.83
352.973	8.9
353.338	9
353.703	9.1
354.068	9.23
354.433	9.43
354.798	9.61
355.164	9.72
355.528	9.91
355.893	9.94
356.258	10.04
356.623	10.26
356.988	10.33
357.353	10.45
357.718	10.6
358.082	10.66
358.447	10.69
358.812	10.74
359.176	10.76
359.541	10.71
359.905	10.78
360.27	10.93
360.634	11.07
360.999	11.15
361.363	11.24
361.728	11.25
362.092	11.29
362.456	11.37
362.821	11.47
363.185	11.42
363.549	11.55
363.913	11.63
364.277	11.54
364.641	11.59
365.005	11.62
365.369	11.63
365.733	11.69
366.097	11.8
366.461	11.82
366.825	11.87
367.189	12.08
367.553	12.17
367.916	12.24
368.28	12.25
368.644	12.4
369.007	12.52
369.371	12.63
369.734	12.72
370.098	12.77
370.461	12.82
370.825	12.92
371.188	13.01
371.552	13.07
371.915	13.22
372.278	13.34
372.642	13.45
373.005	13.55
373.368	13.55
373.731	13.55
374.094	13.66
374.457	13.7
374.82	13.67
375.183	13.61
375.546	13.63
375.909	13.68
376.272	13.58
376.635	13.5
376.998	13.46
377.361	13.51
377.723	13.56
378.086	13.62
378.449	13.7
378.811	13.71
379.174	13.73
379.537	13.71
379.899	13.72
380.262	13.8
380.624	13.81
380.987	13.87
381.349	13.87
381.711	13.87
382.074	13.96
382.436	14.02
382.798	14.09
383.16	14.09
383.522	14.13
383.884	14.26
384.247	14.37
384.609	14.47
384.971	14.48
385.333	14.48
385.695	14.47
386.056	14.46
386.418	14.43
386.78	14.45
387.142	14.49
387.504	14.46
387.865	14.38
388.227	14.32
388.589	14.31
388.95	14.31
389.312	14.27
389.673	14.19
390.035	14.15
390.396	14.09
390.758	14.05
391.119	13.98
391.48	13.93
391.842	13.85
392.203	13.77
392.564	13.69
392.925	13.65
393.286	13.67
393.648	13.61
394.009	13.57
394.37	13.52
394.731	13.47
395.092	13.42
395.452	13.38
395.813	13.36
396.174	13.34
396.535	13.31
396.896	13.29
397.257	13.29
397.617	13.27
397.978	13.26
398.338	13.28
398.699	13.27
399.06	13.2
399.42	13.17
399.781	13.15
400.141	13.09
400.501	13.07
400.862	13
401.222	12.97
401.582	12.96
401.943	12.92
402.303	12.91
402.663	12.87
403.023	12.87
403.383	12.83
403.743	12.79
404.103	12.81
404.463	12.81
404.823	12.79
405.183	12.77
405.543	12.76
405.903	12.73
406.262	12.72
406.622	12.73
406.982	12.72
407.342	12.72
407.701	12.79
408.061	12.76
408.42	12.74
408.78	12.74
409.139	12.71
409.499	12.71
409.858	12.72
410.217	12.73
410.577	12.7
410.936	12.69
411.295	12.67
411.655	12.61
412.014	12.56
412.373	12.53
412.732	12.45
413.091	12.39
413.45	12.33
413.809	12.26
414.168	12.17
414.527	12.07
414.886	11.97
415.245	11.86
415.603	11.77
415.962	11.64
416.321	11.53
416.679	11.42
417.038	11.28
417.397	11.14
417.755	11.03
418.114	10.94
418.472	10.85
418.831	10.76
419.189	10.68
419.547	10.59
419.906	10.5
420.264	10.43
420.622	10.35
420.981	10.29
421.339	10.22
421.697	10.14
422.055	10.09
422.413	10.04
422.771	10
423.129	9.96
423.487	9.95
423.845	9.94
424.203	9.93
424.56	9.92
424.918	9.92
425.276	9.92
425.634	9.94
425.991	9.93
426.349	9.94
426.707	9.94
427.064	9.96
427.422	9.97
427.779	10
428.137	10.06
428.494	10.07
428.851	10.13
429.209	10.21
429.566	10.21
429.923	10.23
430.28	10.23
430.637	10.24
430.995	10.22
431.352	10.23
431.709	10.26
432.066	10.29
432.423	10.32
432.78	10.32
433.137	10.33
433.493	10.35
433.85	10.39
434.207	10.39
434.564	10.42
434.92	10.45
435.277	10.45
435.634	10.43
435.99	10.43
436.347	10.43
436.703	10.39
437.06	10.42
437.416	10.44
437.773	10.46
438.129	10.46
438.485	10.48
438.841	10.46
439.198	10.45
439.554	10.44
439.91	10.43
440.266	10.43
440.622	10.4
440.978	10.37
441.334	10.34
441.69	10.29
442.046	10.23
442.402	10.15
442.758	10.08
443.113	10.02
443.469	9.95
443.825	9.88
444.181	9.84
444.536	9.79
444.892	9.72
445.247	9.67
445.603	9.64
445.958	9.6
446.314	9.58
446.669	9.54
447.025	9.48
447.38	9.43
447.735	9.37
448.09	9.34
448.446	9.3
448.801	9.24
449.156	9.21
449.511	9.17
449.866	9.16
450.221	9.17
450.576	9.16
450.931	9.16
451.286	9.13
451.641	9.14
451.995	9.12
452.35	9.14
452.705	9.14
453.06	9.12
453.414	9.13
453.769	9.13
454.123	9.14
454.478	9.16
454.832	9.16
455.187	9.17
455.541	9.18
455.896	9.18
456.25	9.21
456.604	9.22
456.958	9.24
457.313	9.25
457.667	9.28
458.021	9.31
458.375	9.34
458.729	9.42
459.083	9.46
459.437	9.52
459.791	9.58
460.145	9.63
460.499	9.71
460.852	9.75
461.206	9.82
461.56	9.89
461.914	9.97
462.267	10.06
462.621	10.17
462.974	10.29
463.328	10.45
463.681	10.6
464.035	10.78
464.388	10.94
464.742	11.08
465.095	11.22
465.448	11.35
465.801	11.48
466.155	11.59
466.508	11.69
466.861	11.79
467.214	11.88
467.567	11.99
467.92	12.06
468.273	12.15
468.626	12.21
468.979	12.28
469.332	12.34
469.684	12.4
470.037	12.47
470.39	12.49
470.743	12.53
471.095	12.58
471.448	12.62
471.8	12.64
472.153	12.69
472.505	12.69
472.858	12.69
473.21	12.65
473.562	12.61
473.915	12.57
474.267	12.49
474.619	12.41
474.971	12.31
475.324	12.24
475.676	12.15
476.028	12.06
476.38	11.95
476.732	11.84
477.084	11.74
477.436	11.62
477.787	11.51
478.139	11.39
478.491	11.26
478.843	11.1
479.195	10.95
479.546	10.72
479.898	10.47
480.249	10.25
480.601	10.08
480.952	9.95
481.304	9.84
481.655	9.78
482.007	9.73
482.358	9.69
482.709	9.63
483.061	9.6
483.412	9.57
483.763	9.54
484.114	9.52
484.465	9.5
484.816	9.49
485.167	9.49
485.518	9.48
485.869	9.49
486.22	9.52
486.571	9.55
486.922	9.6
487.272	9.67
487.623	9.76
487.974	9.89
488.324	10
488.675	10.12
489.025	10.22
489.376	10.33
489.726	10.43
490.077	10.55
490.427	10.67
490.778	10.8
491.128	10.97
491.478	11.15
491.828	11.36
492.179	11.58
492.529	11.8
492.879	12.03
493.229	12.26
493.579	12.47
493.929	12.66
494.279	12.88
494.629	13.13
494.979	13.42
495.328	13.75
495.678	14.14
496.028	14.52
496.378	14.9
496.727	15.24
497.077	15.57
497.426	15.9
497.776	16.19
498.125	16.47
498.475	16.75
498.824	17.03
499.174	17.27
499.523	17.55
499.872	17.84
500.221	18.13
500.571	18.41
500.92	18.73
501.269	19.05
501.618	19.34
501.967	19.65
502.316	19.93
502.665	20.2
503.014	20.47
503.363	20.74
503.711	20.95
504.06	21.17
504.409	21.38
504.758	21.58
505.106	21.74
505.455	21.92
505.803	22.08
506.152	22.23
506.5	22.4
506.849	22.54
507.197	22.67
507.546	22.81
507.894	22.95
508.242	23.07
508.59	23.17
508.939	23.27
509.287	23.37
509.635	23.45
509.983	23.52
510.331	23.61
510.679	23.69
511.027	23.77
511.375	23.86
511.723	23.93
512.07	24
512.418	24.09
512.766	24.18
513.114	24.25
513.461	24.31
513.809	24.35
514.156	24.4
514.504	24.47
514.851	24.51
515.199	24.56
515.546	24.61
515.893	24.65
516.241	24.71
516.588	24.75
516.935	24.82
517.282	24.88
517.63	24.91
517.977	24.94
518.324	24.98
518.671	25.03
519.018	25.08
519.365	25.13
519.711	25.17
520.058	25.19
520.405	25.23
520.752	25.28
521.099	25.36
521.445	25.41
521.792	25.43
522.138	25.51
522.485	25.55
522.832	25.6
523.178	25.66
523.524	25.72
523.871	25.75
524.217	25.76
524.563	25.77
524.91	25.77
525.256	25.78
525.602	25.82
525.948	25.83
526.294	25.83
526.64	25.83
526.986	25.86
527.332	25.88
527.678	25.89
528.024	25.9
528.37	25.9
528.716	25.91
529.061	25.93
529.407	25.93
529.753	25.94
530.098	25.94
530.444	25.94
530.789	25.94
531.135	25.95
531.48	25.97
531.826	26
532.171	26.03
532.516	26.07
532.862	26.08
533.207	26.1
533.552	26.13
533.897	26.15
534.242	26.15
534.587	26.16
534.932	26.18
535.277	26.19
535.622	26.2
535.967	26.22
536.312	26.24
536.657	26.27
537.001	26.28
537.346	26.31
537.691	26.32
538.035	26.31
538.38	26.28
538.724	26.26
539.069	26.22
539.413	26.22
539.758	26.22
540.102	26.21
540.446	26.21
540.791	26.21
541.135	26.21
541.479	26.22
541.823	26.23
542.167	26.21
542.512	26.22
542.856	26.2
543.2	26.18
543.543	26.17
543.887	26.15
544.231	26.17
544.575	26.16
544.919	26.17
545.262	26.18
545.606	26.21
545.95	26.25
546.293	26.28
546.637	26.29
546.98	26.27
547.324	26.27
547.667	26.27
548.011	26.25
548.354	26.22
548.697	26.21
549.04	26.2
549.384	26.21
549.727	26.17
550.07	26.17
550.413	26.15
550.756	26.14
551.099	26.13
551.442	26.1
551.785	26.09
552.128	26.04
552.47	26.02
552.813	25.99
553.156	25.95
553.499	25.94
553.841	25.9
554.184	25.9
554.526	25.88
554.869	25.84
555.211	25.8
555.554	25.78
555.896	25.7
556.238	25.65
556.581	25.58
556.923	25.56
557.265	25.52
557.607	25.48
557.949	25.44
558.291	25.4
558.633	25.35
558.975	25.3
559.317	25.29
559.659	25.23
560.001	25.17
560.343	25.11
560.685	25.06
561.026	25
561.368	24.96
561.71	24.88
562.051	24.85
562.393	24.83
562.734	24.78
563.076	24.76
563.417	24.72
563.759	24.7
564.1	24.64
564.441	24.6
564.782	24.53
565.124	24.49
565.465	24.45
565.806	24.4
566.147	24.37
566.488	24.29
566.829	24.27
567.17	24.23
567.511	24.2
567.851	24.14
568.192	24.08
568.533	24.01
568.874	23.98
569.214	23.9
569.555	23.85
569.895	23.78
570.236	23.73
570.576	23.67
570.917	23.59
571.257	23.53
571.598	23.46
571.938	23.45
572.278	23.41
572.618	23.38
572.959	23.34
573.299	23.29
573.639	23.26
573.979	23.18
574.319	23.12
574.659	23.04
574.999	22.97
575.339	22.91
575.678	22.84
576.018	22.78
576.358	22.73
576.698	22.63
577.037	22.56
577.377	22.53
577.716	22.45
578.056	22.43
578.395	22.38
578.735	22.31
579.074	22.24
579.413	22.12
579.753	22.05
580.092	21.98
580.431	21.92
580.77	21.85
581.109	21.81
581.448	21.74
581.787	21.71
582.126	21.65
582.465	21.6
582.804	21.57
583.143	21.47
583.482	21.39
583.82	21.35
584.159	21.31
584.498	21.2
584.836	21.18
585.175	21.13
585.514	21.06
585.852	21.02
586.19	20.94
586.529	20.89
586.867	20.83
587.205	20.79
587.544	20.73
587.882	20.69
588.22	20.62
588.558	20.58
588.896	20.48
589.234	20.44
589.572	20.41
589.91	20.32
590.248	20.32
590.586	20.3
590.924	20.24
591.262	20.2
591.599	20.14
591.937	20.07
592.275	20
592.612	19.91
592.95	19.85
593.287	19.82
593.625	19.8
593.962	19.7
594.299	19.62
594.637	19.56
594.974	19.51
595.311	19.45
595.648	19.43
595.985	19.39
596.322	19.33
596.659	19.28
596.996	19.24
597.333	19.17
597.67	19.11
598.007	19.05
598.344	18.98
598.681	18.92
599.017	18.84
599.354	18.76
599.691	18.72
600.027	18.64
600.364	18.56
600.7	18.47
601.037	18.41
601.373	18.33
601.71	18.27
602.046	18.2
602.382	18.15
602.718	18.09
603.054	18.04
603.391	17.99
603.727	17.92
604.063	17.88
604.399	17.83
604.735	17.77
605.071	17.73
605.406	17.71
605.742	17.68
606.078	17.67
606.414	17.64
606.749	17.62
607.085	17.56
607.421	17.49
607.756	17.41
608.092	17.34
608.427	17.31
608.762	17.22
609.098	17.12
609.433	17.06
609.768	16.99
610.104	16.94
610.439	16.9
610.774	16.88
611.109	16.8
611.444	16.74
611.779	16.69
612.114	16.61
612.449	16.5
612.784	16.47
613.118	16.37
613.453	16.28
613.788	16.13
614.123	16.07
614.457	15.99
614.792	15.95
615.126	15.84
615.461	15.71
615.795	15.62
616.13	15.55
616.464	15.48
616.798	15.41
617.132	15.35
617.467	15.31
617.801	15.21
618.135	15.18
618.469	15.12
618.803	15.03
619.137	14.99
619.471	14.93
619.805	14.83
620.139	14.73
620.472	14.64
620.806	14.61
621.14	14.55
621.473	14.49
621.807	14.41
622.141	14.4
622.474	14.37
622.808	14.33
623.141	14.33
623.474	14.27
623.808	14.25
624.141	14.2
624.474	14.17
624.807	14.16
625.141	14.13
625.474	14.09
625.807	14.08
626.14	14.05
626.473	14.02
626.806	14
627.138	14.03
627.471	14
627.804	14
628.137	13.94
628.469	13.89
628.802	13.83
629.135	13.8
629.467	13.76
629.8	13.71
630.132	13.67
630.465	13.64
630.797	13.61
631.129	13.57
631.461	13.5
631.794	13.46
632.126	13.39
632.458	13.36
632.79	13.34
633.122	13.3
633.454	13.28
633.786	13.3
634.118	13.21
634.45	13.21
634.781	13.16
635.113	13.12
635.445	13.08
635.777	13.06
636.108	13.04
636.44	13.03
636.771	13
637.103	12.9
637.434	12.86
637.765	12.77
638.097	12.71
638.428	12.63
638.759	12.56
639.09	12.5
639.422	12.44
639.753	12.39
640.084	12.38
640.415	12.35
640.746	12.23
641.077	12.18
641.407	12.12
641.738	12.08
642.069	12.08
642.4	12.04
642.73	12.04
643.061	11.97
643.392	11.94
643.722	11.96
644.053	11.94
644.383	11.91
644.713	11.87
645.044	11.84
645.374	11.79
645.704	11.78
646.034	11.8
