Data from pcis_p_m4_p3_Reflection_1.txt Node
Date: Wed Jul 12 17:58:23 ART 2017
User: rodoncho
Spectrometer: USB2E3644
Trigger mode: 4
Integration Time (sec): 6.000000E-2
Scans to average: 10
Electric dark correction enabled: true
Nonlinearity correction enabled: false
Boxcar width: 10
XAxis mode: Wavelengths
Number of Pixels in Spectrum: 2048
>>>>>Begin Spectral Data<<<<<
178.315	-312.28
178.696	-177.78
179.076	-533.33
179.457	-645.83
179.838	214.81
180.218	-68.63
180.599	104.5
180.979	35
181.36	78.91
181.74	-152.08
182.121	-5533.33
182.501	67.64
182.881	39.92
183.262	-13.75
183.642	-271.6
184.022	13533.33
184.402	363.4
184.783	298.25
185.163	249.88
185.543	207.29
185.923	228.05
186.303	187.03
186.683	181.62
187.063	171.21
187.443	172.34
187.823	156.86
188.203	145.31
188.583	155.02
188.963	154.98
189.343	149.1
189.723	145.64
190.102	141.78
190.482	137.12
190.862	134.53
191.242	133.42
191.621	129.69
192.001	126.75
192.38	125.29
192.76	122.69
193.14	122.8
193.519	127.02
193.898	121.73
194.278	120.99
194.657	120.01
195.037	119.8
195.416	119.83
195.795	122.09
196.175	124.54
196.554	124.35
196.933	122.97
197.312	123.34
197.692	123.53
198.071	123.62
198.45	122.86
198.829	121.15
199.208	122.18
199.587	123.68
199.966	122.76
200.345	123.91
200.724	123.53
201.103	124.49
201.482	122.79
201.86	123.87
202.239	124.15
202.618	122.12
202.997	121.87
203.375	122.73
203.754	120.48
204.133	119.16
204.511	119.1
204.89	120.52
205.269	122.35
205.647	122.01
206.026	121.91
206.404	122.63
206.782	120.67
207.161	119.62
207.539	119.87
207.918	120.88
208.296	122.92
208.674	123.53
209.052	122.56
209.431	121.99
209.809	123.61
210.187	125.78
210.565	127.8
210.943	127.5
211.321	126.89
211.699	127.54
212.077	127.2
212.455	125.09
212.833	123.69
213.211	122.47
213.589	122.88
213.967	123.87
214.345	124.9
214.722	126.63
215.1	126.57
215.478	126.53
215.855	126.83
216.233	125.02
216.611	125.95
216.988	126.87
217.366	126.69
217.743	125.47
218.121	123.55
218.498	122.67
218.876	121.49
219.253	120.4
219.631	119.63
220.008	119.94
220.385	121.31
220.762	123.12
221.14	123.14
221.517	122.01
221.894	119.58
222.271	118.48
222.648	119.46
223.025	120.56
223.402	121.19
223.78	120.33
224.157	118.28
224.533	116.51
224.91	116.37
225.287	116.7
225.664	116.66
226.041	115.58
226.418	115.71
226.795	117.46
227.171	117.31
227.548	116.7
227.925	116.28
228.301	115.56
228.678	114.24
229.055	114.19
229.431	114.1
229.808	114.6
230.184	114.82
230.561	113.28
230.937	112.31
231.313	111.43
231.69	111.31
232.066	113.58
232.442	115.8
232.819	117.66
233.195	119.21
233.571	120.17
233.947	120.83
234.323	120.12
234.699	120.54
235.075	122.36
235.451	124.69
235.827	125.45
236.203	125.47
236.579	126.08
236.955	126.22
237.331	127.62
237.707	129.39
238.083	132
238.459	137
238.834	143.72
239.21	149.81
239.586	154.17
239.961	157.78
240.337	159.86
240.713	160.11
241.088	160.01
241.464	164.9
241.839	174.04
242.215	187.1
242.59	198.01
242.965	229.96
243.341	297.25
243.716	414.25
244.091	711.88
244.467	1540.18
244.842	9818.39
245.217	-2510.91
245.592	-1543.42
245.967	-1188.93
246.343	-1373.14
246.718	-1760.81
247.093	-1558.56
247.468	-1420.36
247.843	-1225.25
248.218	-882.26
248.593	-630.32
248.967	-469.94
249.342	-419.34
249.717	-404.15
250.092	-409.98
250.467	-433.69
250.841	-584.11
251.216	-1242.27
251.591	32814.81
251.965	1318.65
252.34	828.7
252.714	685.69
253.089	580.67
253.463	553.16
253.838	545.78
254.212	594.98
254.587	709.92
254.961	955.36
255.335	2478.22
255.71	-1673.15
256.084	-482.73
256.458	-278.26
256.832	-198.71
257.206	-168.75
257.581	-150.04
257.955	-140.79
258.329	-130.47
258.703	-121.93
259.077	-115.04
259.451	-109.07
259.825	-101.85
260.199	-97.55
260.572	-95.5
260.946	-90.45
261.32	-87.26
261.694	-83.34
262.068	-80.31
262.441	-78.21
262.815	-77.7
263.189	-78.38
263.562	-82.54
263.936	-94.04
264.309	-111.16
264.683	-130.02
265.056	-142.33
265.43	-149.77
265.803	-147.85
266.176	-142.12
266.55	-142.07
266.923	-140.56
267.296	-135.14
267.67	-129.84
268.043	-119.51
268.416	-108.69
268.789	-100.31
269.162	-90.06
269.535	-84.54
269.908	-80.26
270.281	-78.33
270.654	-78.24
271.027	-80.02
271.4	-81.63
271.773	-81.77
272.146	-80.24
272.519	-77.41
272.891	-75.16
273.264	-74.15
273.637	-73.42
274.01	-74.96
274.382	-72.91
274.755	-71.53
275.127	-71.78
275.5	-72.51
275.872	-73.67
276.245	-73.55
276.617	-74.51
276.99	-76.71
277.362	-78.29
277.734	-78.82
278.107	-77.35
278.479	-73.44
278.851	-69.89
279.223	-66
279.596	-64.33
279.968	-63.31
280.34	-63.64
280.712	-61.28
281.084	-58.12
281.456	-53.21
281.828	-48.77
282.2	-45.13
282.572	-42.13
282.944	-39.97
283.315	-38.72
283.687	-37.83
284.059	-37.49
284.431	-37.37
284.802	-37.45
285.174	-36.42
285.546	-35.51
285.917	-35.05
286.289	-34.19
286.66	-33.4
287.032	-33.35
287.403	-32.53
287.775	-32.09
288.146	-31.9
288.518	-32.37
288.889	-32.22
289.26	-33.52
289.632	-34.79
290.003	-36.34
290.374	-37.38
290.745	-37.68
291.116	-37.31
291.487	-36.18
291.858	-35.25
292.229	-34.32
292.6	-32.81
292.971	-31.78
293.342	-29.88
293.713	-28.25
294.084	-27.16
294.455	-26.08
294.826	-25.29
295.196	-25.43
295.567	-25.27
295.938	-24.9
296.308	-24.58
296.679	-24.05
297.05	-23.06
297.42	-22.16
297.791	-21.12
298.161	-20.3
298.532	-19.74
298.902	-19.22
299.272	-19.15
299.643	-18.95
300.013	-18.77
300.383	-18.6
300.754	-18.37
301.124	-18.77
301.494	-18.78
301.864	-18.8
302.234	-18.8
302.604	-18.95
302.974	-18.92
303.344	-18.81
303.714	-18.6
304.084	-17.69
304.454	-17.6
304.824	-17.05
305.194	-16.47
305.563	-15.52
305.933	-14.32
306.303	-13.13
306.673	-12.57
307.042	-11.77
307.412	-10.77
307.781	-9.68
308.151	-8.6
308.521	-7.69
308.89	-6.88
309.259	-6.37
309.629	-5.95
309.998	-5.88
310.368	-5.58
310.737	-4.91
311.106	-4.21
311.475	-3.37
311.845	-3.11
312.214	-2.6
312.583	-2.26
312.952	-1.8
313.321	-1.83
313.69	-2.08
314.059	-2.17
314.428	-2.08
314.797	-2.18
315.166	-2.64
315.535	-2.72
315.904	-3.04
316.272	-3.28
316.641	-3.3
317.01	-3.19
317.379	-3.11
317.747	-2.78
318.116	-2.52
318.484	-2.39
318.853	-2.11
319.221	-1.59
319.59	-0.9
319.958	-0.37
320.327	-0.14
320.695	0.01
321.063	0.33
321.432	0.88
321.8	1.14
322.168	2.08
322.536	2.85
322.905	3.74
323.273	4.39
323.641	4.8
324.009	4.72
324.377	4.96
324.745	5.18
325.113	5.67
325.481	6.4
325.849	7.28
326.216	7.9
326.584	8.38
326.952	8.44
327.32	8.43
327.687	8.63
328.055	8.92
328.423	9.27
328.79	9.74
329.158	9.99
329.525	10.48
329.893	10.46
330.26	10.65
330.628	10.87
330.995	11.1
331.362	11.45
331.73	12.25
332.097	12.61
332.464	13.04
332.831	13.23
333.199	13.34
333.566	13.42
333.933	13.48
334.3	13.54
334.667	13.79
335.034	13.95
335.401	14.05
335.768	14.24
336.135	14.29
336.502	14.31
336.868	14.56
337.235	14.87
337.602	15.32
337.969	15.7
338.335	15.97
338.702	16.13
339.069	16.32
339.435	16.47
339.802	16.59
340.168	16.69
340.535	16.92
340.901	16.96
341.267	17.19
341.634	17.46
342	17.86
342.366	18.04
342.733	18.3
343.099	18.7
343.465	18.94
343.831	19.27
344.197	19.49
344.563	19.57
344.929	19.65
345.295	19.68
345.661	19.78
346.027	19.88
346.393	19.98
346.759	19.9
347.125	19.92
347.491	20.07
347.856	20.23
348.222	20.2
348.588	20.42
348.953	20.34
349.319	20.38
349.684	20.27
350.05	20.28
350.415	20.46
350.781	20.38
351.146	20.43
351.512	20.46
351.877	20.55
352.242	20.56
352.608	20.53
352.973	20.49
353.338	20.45
353.703	20.55
354.068	20.57
354.433	20.79
354.798	20.91
355.164	20.91
355.528	20.89
355.893	20.96
356.258	20.85
356.623	20.81
356.988	20.82
357.353	20.88
357.718	20.91
358.082	20.83
358.447	20.81
358.812	20.75
359.176	20.75
359.541	20.74
359.905	20.73
360.27	20.7
360.634	20.84
360.999	20.97
361.363	21.01
361.728	21
362.092	20.9
362.456	20.84
362.821	20.83
363.185	20.79
363.549	20.88
363.913	20.94
364.277	21
364.641	21
365.005	20.93
365.369	20.89
365.733	20.88
366.097	20.96
366.461	20.98
366.825	20.87
367.189	20.83
367.553	20.88
367.916	20.9
368.28	20.81
368.644	20.8
369.007	20.68
369.371	20.72
369.734	20.67
370.098	20.65
370.461	20.63
370.825	20.61
371.188	20.57
371.552	20.46
371.915	20.43
372.278	20.37
372.642	20.38
373.005	20.36
373.368	20.26
373.731	20.14
374.094	20.07
374.457	20.03
374.82	19.97
375.183	19.87
375.546	19.79
375.909	19.75
376.272	19.53
376.635	19.44
376.998	19.3
377.361	19.24
377.723	19.12
378.086	19.01
378.449	18.92
378.811	18.82
379.174	18.75
379.537	18.61
379.899	18.52
380.262	18.45
380.624	18.34
380.987	18.31
381.349	18.26
381.711	18.21
382.074	18.12
382.436	18.1
382.798	18
383.16	17.9
383.522	17.82
383.884	17.83
384.247	17.77
384.609	17.76
384.971	17.72
385.333	17.74
385.695	17.73
386.056	17.65
386.418	17.49
386.78	17.44
387.142	17.36
387.504	17.26
387.865	17.09
388.227	17.02
388.589	16.95
388.95	16.81
389.312	16.68
389.673	16.56
390.035	16.44
390.396	16.34
390.758	16.26
391.119	16.09
391.48	15.93
391.842	15.81
392.203	15.64
392.564	15.52
392.925	15.36
393.286	15.21
393.648	15.09
394.009	15
394.37	14.85
394.731	14.71
395.092	14.61
395.452	14.51
395.813	14.4
396.174	14.28
396.535	14.18
396.896	14.07
397.257	13.96
397.617	13.87
397.978	13.77
398.338	13.67
398.699	13.64
399.06	13.56
399.42	13.43
399.781	13.36
400.141	13.23
400.501	13.13
400.862	13.05
401.222	13.01
401.582	12.99
401.943	12.97
402.303	12.94
402.663	12.88
403.023	12.83
403.383	12.76
403.743	12.72
404.103	12.71
404.463	12.7
404.823	12.71
405.183	12.69
405.543	12.66
405.903	12.61
406.262	12.56
406.622	12.55
406.982	12.56
407.342	12.56
407.701	12.6
408.061	12.6
408.42	12.6
408.78	12.56
409.139	12.51
409.499	12.49
409.858	12.48
410.217	12.5
410.577	12.46
410.936	12.47
411.295	12.45
411.655	12.4
412.014	12.35
412.373	12.27
412.732	12.19
413.091	12.12
413.45	12.06
413.809	11.98
414.168	11.86
414.527	11.73
414.886	11.62
415.245	11.5
415.603	11.36
415.962	11.21
416.321	11.09
416.679	10.97
417.038	10.82
417.397	10.67
417.755	10.52
418.114	10.42
418.472	10.31
418.831	10.21
419.189	10.12
419.547	10.03
419.906	9.94
420.264	9.85
420.622	9.78
420.981	9.69
421.339	9.61
421.697	9.55
422.055	9.49
422.413	9.43
422.771	9.4
423.129	9.37
423.487	9.37
423.845	9.35
424.203	9.33
424.56	9.34
424.918	9.34
425.276	9.35
425.634	9.38
425.991	9.38
426.349	9.38
426.707	9.4
427.064	9.41
427.422	9.44
427.779	9.46
428.137	9.46
428.494	9.5
428.851	9.57
429.209	9.59
429.566	9.64
429.923	9.65
430.28	9.62
430.637	9.63
430.995	9.6
431.352	9.58
431.709	9.61
432.066	9.62
432.423	9.63
432.78	9.66
433.137	9.64
433.493	9.66
433.85	9.68
434.207	9.65
434.564	9.65
434.92	9.66
435.277	9.67
435.634	9.69
435.99	9.67
436.347	9.63
436.703	9.65
437.06	9.62
437.416	9.6
437.773	9.63
438.129	9.62
438.485	9.63
438.841	9.63
439.198	9.61
439.554	9.59
439.91	9.6
440.266	9.57
440.622	9.54
440.978	9.51
441.334	9.46
441.69	9.43
442.046	9.38
442.402	9.33
442.758	9.26
443.113	9.21
443.469	9.17
443.825	9.13
444.181	9.09
444.536	9.06
444.892	9.03
445.247	8.99
445.603	8.96
445.958	8.94
446.314	8.91
446.669	8.88
447.025	8.84
447.38	8.8
447.735	8.78
448.09	8.75
448.446	8.73
448.801	8.72
449.156	8.72
449.511	8.71
449.866	8.72
450.221	8.74
450.576	8.74
450.931	8.74
451.286	8.72
451.641	8.71
451.995	8.73
452.35	8.75
452.705	8.77
453.06	8.8
453.414	8.82
453.769	8.83
454.123	8.84
454.478	8.83
454.832	8.85
455.187	8.85
455.541	8.83
455.896	8.8
456.25	8.79
456.604	8.77
456.958	8.78
457.313	8.77
457.667	8.77
458.021	8.8
458.375	8.83
458.729	8.88
459.083	8.92
459.437	8.94
459.791	8.96
460.145	8.99
460.499	9.02
460.852	9.06
461.206	9.11
461.56	9.16
461.914	9.23
462.267	9.27
462.621	9.34
462.974	9.45
463.328	9.58
463.681	9.72
464.035	9.87
464.388	10.01
464.742	10.15
465.095	10.28
465.448	10.4
465.801	10.54
466.155	10.64
466.508	10.75
466.861	10.86
467.214	10.98
467.567	11.08
467.92	11.18
468.273	11.25
468.626	11.33
468.979	11.4
469.332	11.49
469.684	11.56
470.037	11.66
470.39	11.72
470.743	11.78
471.095	11.83
471.448	11.87
471.8	11.9
472.153	11.92
472.505	11.94
472.858	11.92
473.21	11.87
473.562	11.82
473.915	11.75
474.267	11.67
474.619	11.59
474.971	11.5
475.324	11.38
475.676	11.3
476.028	11.18
476.38	11.09
476.732	10.95
477.084	10.85
477.436	10.69
477.787	10.55
478.139	10.41
478.491	10.28
478.843	10.12
479.195	9.97
479.546	9.8
479.898	9.58
480.249	9.39
480.601	9.22
480.952	9.1
481.304	9
481.655	8.92
482.007	8.84
482.358	8.79
482.709	8.75
483.061	8.72
483.412	8.7
483.763	8.67
484.114	8.65
484.465	8.63
484.816	8.63
485.167	8.62
485.518	8.61
485.869	8.61
486.22	8.61
486.571	8.64
486.922	8.66
487.272	8.7
487.623	8.76
487.974	8.85
488.324	8.96
488.675	9.06
489.025	9.16
489.376	9.25
489.726	9.36
490.077	9.45
490.427	9.55
490.778	9.66
491.128	9.81
491.478	10
491.828	10.22
492.179	10.43
492.529	10.69
492.879	10.97
493.229	11.26
493.579	11.56
493.929	11.84
494.279	12.14
494.629	12.49
494.979	12.9
495.328	13.38
495.678	13.92
496.028	14.51
496.378	15.11
496.727	15.68
497.077	16.27
497.426	16.85
497.776	17.42
498.125	18
498.475	18.57
498.824	19.11
499.174	19.69
499.523	20.3
499.872	20.95
500.221	21.63
500.571	22.34
500.92	23.08
501.269	23.82
501.618	24.55
501.967	25.28
502.316	26.01
502.665	26.76
503.014	27.48
503.363	28.21
503.711	28.89
504.06	29.61
504.409	30.29
504.758	30.92
505.106	31.55
505.455	32.14
505.803	32.74
506.152	33.29
506.5	33.79
506.849	34.28
507.197	34.72
507.546	35.17
507.894	35.62
508.242	36.05
508.59	36.47
508.939	36.88
509.287	37.25
509.635	37.6
509.983	37.92
510.331	38.23
510.679	38.53
511.027	38.82
511.375	39.1
511.723	39.38
512.07	39.71
512.418	39.99
512.766	40.26
513.114	40.49
513.461	40.76
513.809	41
514.156	41.24
514.504	41.52
514.851	41.74
515.199	41.97
515.546	42.19
515.893	42.4
516.241	42.59
516.588	42.76
516.935	42.92
517.282	43.09
517.63	43.25
517.977	43.36
518.324	43.51
518.671	43.63
519.018	43.72
519.365	43.8
519.711	43.9
520.058	44.02
520.405	44.14
520.752	44.23
521.099	44.34
521.445	44.45
521.792	44.55
522.138	44.73
522.485	44.83
522.832	44.96
523.178	45.12
523.524	45.25
523.871	45.35
524.217	45.45
524.563	45.56
524.91	45.72
525.256	45.89
525.602	46
525.948	46.07
526.294	46.13
526.64	46.17
526.986	46.23
527.332	46.25
527.678	46.3
528.024	46.34
528.37	46.38
528.716	46.43
529.061	46.47
529.407	46.5
529.753	46.55
530.098	46.6
530.444	46.62
530.789	46.65
531.135	46.68
531.48	46.72
531.826	46.76
532.171	46.77
532.516	46.75
532.862	46.77
533.207	46.8
533.552	46.83
533.897	46.87
534.242	46.89
534.587	46.92
534.932	46.93
535.277	46.97
535.622	46.98
535.967	47
536.312	47.01
536.657	47.04
537.001	47.08
537.346	47.07
537.691	47.1
538.035	47.11
538.38	47.13
538.724	47.15
539.069	47.13
539.413	47.13
539.758	47.13
540.102	47.09
540.446	47.08
540.791	47.07
541.135	47.07
541.479	47.05
541.823	47.06
542.167	47.01
542.512	46.98
542.856	46.96
543.2	46.94
543.543	46.91
543.887	46.89
544.231	46.86
544.575	46.84
544.919	46.81
545.262	46.77
545.606	46.75
545.95	46.71
546.293	46.71
546.637	46.66
546.98	46.65
547.324	46.65
547.667	46.63
548.011	46.6
548.354	46.57
548.697	46.54
549.04	46.48
549.384	46.45
549.727	46.42
550.07	46.37
550.413	46.3
550.756	46.26
551.099	46.18
551.442	46.13
551.785	46.07
552.128	46.02
552.47	45.93
552.813	45.84
553.156	45.76
553.499	45.68
553.841	45.65
554.184	45.55
554.526	45.51
554.869	45.41
555.211	45.35
555.554	45.25
555.896	45.16
556.238	45.1
556.581	45.03
556.923	44.96
557.265	44.86
557.607	44.78
557.949	44.68
558.291	44.59
558.633	44.46
558.975	44.35
559.317	44.22
559.659	44.16
560.001	44.01
560.343	43.91
560.685	43.79
561.026	43.71
561.368	43.57
561.71	43.43
562.051	43.37
562.393	43.28
562.734	43.19
563.076	43.08
563.417	42.94
563.759	42.84
564.1	42.71
564.441	42.59
564.782	42.45
565.124	42.34
565.465	42.22
565.806	42.09
566.147	42.01
566.488	41.91
566.829	41.76
567.17	41.68
567.511	41.56
567.851	41.45
568.192	41.3
568.533	41.19
568.874	41.06
569.214	40.9
569.555	40.74
569.895	40.6
570.236	40.48
570.576	40.31
570.917	40.15
571.257	40.03
571.598	39.92
571.938	39.83
572.278	39.74
572.618	39.64
572.959	39.52
573.299	39.4
573.639	39.28
573.979	39.2
574.319	39.08
574.659	38.96
574.999	38.88
575.339	38.75
575.678	38.61
576.018	38.47
576.358	38.35
576.698	38.22
577.037	38.08
577.377	37.95
577.716	37.85
578.056	37.73
578.395	37.57
578.735	37.42
579.074	37.27
579.413	37.05
579.753	36.89
580.092	36.78
580.431	36.63
580.77	36.49
581.109	36.35
581.448	36.2
581.787	36.04
582.126	35.86
582.465	35.72
582.804	35.61
583.143	35.48
583.482	35.33
583.82	35.2
584.159	35.05
584.498	34.93
584.836	34.79
585.175	34.62
585.514	34.49
585.852	34.39
586.19	34.22
586.529	34.1
586.867	33.96
587.205	33.84
587.544	33.72
587.882	33.59
588.22	33.42
588.558	33.31
588.896	33.18
589.234	33.11
589.572	32.99
589.91	32.85
590.248	32.74
590.586	32.65
590.924	32.52
591.262	32.4
591.599	32.28
591.937	32.16
592.275	32.05
592.612	31.93
592.95	31.76
593.287	31.65
593.625	31.51
593.962	31.41
594.299	31.33
594.637	31.23
594.974	31.13
595.311	31.04
595.648	30.93
595.985	30.85
596.322	30.7
596.659	30.58
596.996	30.49
597.333	30.38
597.67	30.22
598.007	30.11
598.344	29.97
598.681	29.86
599.017	29.75
599.354	29.66
599.691	29.5
600.027	29.37
600.364	29.23
600.7	29.1
601.037	28.94
601.373	28.74
601.71	28.61
602.046	28.48
602.382	28.39
602.718	28.27
603.054	28.17
603.391	28.08
603.727	27.98
604.063	27.88
604.399	27.74
604.735	27.66
605.071	27.59
605.406	27.53
605.742	27.44
606.078	27.35
606.414	27.26
606.749	27.21
607.085	27.1
607.421	27
607.756	26.88
608.092	26.74
608.427	26.6
608.762	26.44
609.098	26.29
609.433	26.12
609.768	26.01
610.104	25.87
610.439	25.77
610.774	25.67
611.109	25.56
611.444	25.51
611.779	25.41
612.114	25.3
612.449	25.18
612.784	25.06
613.118	24.89
613.453	24.72
613.788	24.54
614.123	24.41
614.457	24.27
614.792	24.16
615.126	24.05
615.461	23.96
615.795	23.83
616.13	23.76
616.464	23.73
616.798	23.63
617.132	23.57
617.467	23.51
617.801	23.41
618.135	23.36
618.469	23.3
618.803	23.16
619.137	23.06
619.471	22.97
619.805	22.84
620.139	22.79
620.472	22.7
620.806	22.62
621.14	22.52
621.473	22.46
621.807	22.33
622.141	22.24
622.474	22.14
622.808	22.08
623.141	21.97
623.474	21.89
623.808	21.82
624.141	21.73
624.474	21.6
624.807	21.57
625.141	21.48
625.474	21.41
625.807	21.39
626.14	21.34
626.473	21.27
626.806	21.23
627.138	21.16
627.471	21.07
627.804	21.03
628.137	20.97
628.469	20.9
628.802	20.85
629.135	20.77
629.467	20.68
629.8	20.62
630.132	20.57
630.465	20.44
630.797	20.38
631.129	20.3
631.461	20.26
631.794	20.2
632.126	20.1
632.458	20.04
632.79	19.98
633.122	19.89
633.454	19.82
633.786	19.77
634.118	19.74
634.45	19.71
634.781	19.6
635.113	19.54
635.445	19.45
635.777	19.41
636.108	19.38
636.44	19.33
636.771	19.25
637.103	19.13
637.434	19.07
637.765	18.97
638.097	18.9
638.428	18.77
638.759	18.66
639.09	18.58
639.422	18.5
639.753	18.41
640.084	18.36
640.415	18.29
640.746	18.18
641.077	18.07
641.407	17.98
641.738	17.93
642.069	17.88
642.4	17.81
642.73	17.71
643.061	17.63
643.392	17.58
643.722	17.51
644.053	17.47
644.383	17.45
644.713	17.35
645.044	17.28
645.374	17.24
645.704	17.21
646.034	17.2
646.365	17.16
646.695	17.11
647.025	17.05
