Data from pcis_p_h3_p2_Reflection_4.txt Node
Date: Wed Jul 12 17:52:29 ART 2017
User: rodoncho
Spectrometer: USB2E3644
Trigger mode: 4
Integration Time (sec): 6.000000E-2
Scans to average: 10
Electric dark correction enabled: true
Nonlinearity correction enabled: false
Boxcar width: 10
XAxis mode: Wavelengths
Number of Pixels in Spectrum: 2048
>>>>>Begin Spectral Data<<<<<
178.315	85.87
178.696	70.73
179.076	101.22
179.457	161.29
179.838	135
180.218	89.13
180.599	34.21
180.979	-150
181.36	61.54
181.74	77.27
182.121	112.5
182.501	95.83
182.881	122.06
183.262	162.86
183.642	3800
184.022	13.64
184.402	107.89
184.783	86.02
185.163	90.35
185.543	73.25
185.923	75.98
186.303	81.52
186.683	92.86
187.063	116.24
187.443	131.34
187.823	123.21
188.203	123.36
188.583	121.67
188.963	124.46
189.343	120.77
189.723	122.15
190.102	121.05
190.482	118.01
190.862	117.14
191.242	115.58
191.621	119.44
192.001	124.3
192.38	126.23
192.76	131.37
193.14	130.75
193.519	135.82
193.898	133.53
194.278	131.61
194.657	127.85
195.037	123.28
195.416	121.29
195.795	121.47
196.175	119.08
196.554	117.97
196.933	118.43
197.312	119.63
197.692	120.91
198.071	118.82
198.45	119.07
198.829	122.81
199.208	125.72
199.587	125.11
199.966	123.2
200.345	121.03
200.724	120.61
201.103	121.95
201.482	121.11
201.86	121.32
202.239	121.57
202.618	121.05
202.997	120.56
203.375	120.22
203.754	120.1
204.133	118.84
204.511	117.15
204.89	116.64
205.269	117.26
205.647	118.53
206.026	119.98
206.404	119.56
206.782	117.07
207.161	116.22
207.539	115.15
207.918	114.95
208.296	115.63
208.674	115.2
209.052	113.83
209.431	113.87
209.809	112.89
210.187	112.53
210.565	111.92
210.943	112.01
211.321	111.39
211.699	111.56
212.077	111.42
212.455	112.76
212.833	112.16
213.211	111.84
213.589	109.82
213.967	110.09
214.345	110.59
214.722	111.83
215.1	110.89
215.478	110.4
215.855	110.97
216.233	109.75
216.611	109.75
216.988	109.99
217.366	109.3
217.743	109.55
218.121	109.63
218.498	109.59
218.876	109.13
219.253	110.55
219.631	110.28
220.008	111.4
220.385	112.33
220.762	113.56
221.14	112.83
221.517	111.34
221.894	110.42
222.271	109.85
222.648	108.71
223.025	108.6
223.402	109.54
223.78	110.06
224.157	111.34
224.533	112.87
224.91	113.07
225.287	113.69
225.664	113.54
226.041	112.99
226.418	112.1
226.795	112.3
227.171	111.76
227.548	112.59
227.925	114.46
228.301	114.75
228.678	115.12
229.055	115
229.431	115.82
229.808	116.89
230.184	117.74
230.561	118.93
230.937	119.63
231.313	118.98
231.69	118
232.066	118.5
232.442	117.96
232.819	117.71
233.195	117.87
233.571	118.86
233.947	120.59
234.323	123.15
234.699	124.12
235.075	124.39
235.451	125.1
235.827	124.59
236.203	125.54
236.579	126.62
236.955	127.5
237.331	130.25
237.707	131.94
238.083	134.47
238.459	139.16
238.834	145.98
239.21	152.64
239.586	158.57
239.961	161.47
240.337	164.71
240.713	167.41
241.088	170.83
241.464	174.15
241.839	179.61
242.215	185.64
242.59	198.06
242.965	222.48
243.341	265.12
243.716	331.5
244.091	414.18
244.467	539.67
244.842	771.36
245.217	1136.36
245.592	1421.74
245.967	1674.23
246.343	1449.11
246.718	1303.23
247.093	1376.72
247.468	1575.25
247.843	2031.65
248.218	4316.22
248.593	-4551.43
248.967	-1562.75
249.342	-1133.8
249.717	-1224.81
250.092	-1297.62
250.467	-1624
250.841	-4260.53
251.216	2413.43
251.591	1001.85
251.965	658
252.34	505.5
252.714	444.89
253.089	415.38
253.463	410.32
253.838	424.43
254.212	450.53
254.587	481.25
254.961	569
255.335	834.8
255.71	3720
256.084	-988.1
256.458	-432.28
256.832	-278.82
257.206	-227.83
257.581	-198.73
257.955	-182.55
258.329	-174.02
258.703	-163.64
259.077	-155.92
259.451	-147.59
259.825	-138.23
260.199	-134
260.572	-130.9
260.946	-126.02
261.32	-123.11
261.694	-121.05
262.068	-119.61
262.441	-116.44
262.815	-115.33
263.189	-116.01
263.562	-123.97
263.936	-143.17
264.309	-174.2
264.683	-215.73
265.056	-244.87
265.43	-257.85
265.803	-254.27
266.176	-242.68
266.55	-237.57
266.923	-229.83
267.296	-225.24
267.67	-209.15
268.043	-185.88
268.416	-166.36
268.789	-150
269.162	-132.05
269.535	-121.57
269.908	-113.48
270.281	-109.55
270.654	-108.43
271.027	-110.71
271.4	-111.86
271.773	-112.21
272.146	-111.4
272.519	-108.04
272.891	-105.12
273.264	-104.99
273.637	-105.85
274.01	-107.14
274.382	-105.71
274.755	-103.97
275.127	-103.08
275.5	-104.97
275.872	-104.94
276.245	-106.01
276.617	-108.06
276.99	-113.96
277.362	-116.68
277.734	-119.3
278.107	-118.13
278.479	-112.98
278.851	-108.35
279.223	-103.3
279.596	-99.93
279.968	-97.09
280.34	-97.24
280.712	-93.64
281.084	-87.53
281.456	-80.15
281.828	-72.75
282.2	-67.43
282.572	-62.77
282.944	-59.27
283.315	-57.72
283.687	-57.52
284.059	-57.34
284.431	-56.96
284.802	-56.03
285.174	-54.46
285.546	-52.21
285.917	-51.45
286.289	-50.6
286.66	-49.33
287.032	-49.28
287.403	-48.43
287.775	-47.99
288.146	-47.38
288.518	-48.05
288.889	-48.15
289.26	-49.44
289.632	-50.96
290.003	-52.13
290.374	-53.81
290.745	-55.24
291.116	-55.43
291.487	-54.04
291.858	-52.69
292.229	-51.49
292.6	-50
292.971	-49.4
293.342	-48.14
293.713	-46.19
294.084	-44.82
294.455	-43.97
294.826	-42.8
295.196	-42.92
295.567	-42.83
295.938	-42.45
296.308	-41.69
296.679	-41.06
297.05	-40.24
297.42	-39.45
297.791	-38.58
298.161	-37.64
298.532	-36.4
298.902	-35.55
299.272	-35.16
299.643	-34.56
300.013	-33.9
300.383	-33.5
300.754	-33.02
301.124	-33.11
301.494	-33.43
301.864	-33.23
302.234	-33.14
302.604	-33.15
302.974	-32.53
303.344	-32.02
303.714	-31.8
304.084	-31.12
304.454	-30.53
304.824	-29.51
305.194	-28.67
305.563	-27.64
305.933	-25.99
306.303	-24.66
306.673	-23.87
307.042	-23.03
307.412	-22.01
307.781	-20.9
308.151	-19.99
308.521	-19.16
308.89	-18.4
309.259	-17.96
309.629	-17.73
309.998	-17.48
310.368	-17.41
310.737	-17.35
311.106	-16.91
311.475	-16.08
311.845	-15.71
312.214	-15.43
312.583	-15.12
312.952	-14.58
313.321	-14.56
313.69	-15.14
314.059	-15.61
314.428	-15.67
314.797	-16.28
315.166	-17.25
315.535	-18.24
315.904	-18.78
316.272	-18.96
316.641	-19.13
317.01	-18.81
317.379	-18.47
317.747	-17.98
318.116	-17.4
318.484	-16.89
318.853	-16.36
319.221	-16.37
319.59	-16.36
319.958	-16.31
320.327	-16.34
320.695	-16.27
321.063	-15.81
321.432	-15.1
321.8	-14.53
322.168	-13.67
322.536	-12.4
322.905	-11.04
323.273	-10.16
323.641	-9.54
324.009	-9.65
324.377	-9.4
324.745	-9.28
325.113	-9.15
325.481	-8.89
325.849	-8.35
326.216	-7.67
326.584	-7.33
326.952	-6.9
327.32	-6.38
327.687	-5.92
328.055	-5.43
328.423	-5.15
328.79	-4.82
329.158	-4.57
329.525	-4.1
329.893	-3.89
330.26	-3.81
330.628	-3.96
330.995	-3.73
331.362	-3.41
331.73	-2.69
332.097	-2.34
332.464	-1.95
332.831	-1.83
333.199	-1.51
333.566	-1.31
333.933	-1.35
334.3	-1.26
334.667	-1
335.034	-0.84
335.401	-0.55
335.768	-0.48
336.135	-0.32
336.502	-0.15
336.868	0.3
337.235	0.6
337.602	0.88
337.969	1.13
338.335	1.52
338.702	1.87
339.069	2.05
339.435	2.16
339.802	2.29
340.168	2.51
340.535	2.78
340.901	2.84
341.267	3.04
341.634	3.36
342	3.55
342.366	3.65
342.733	3.75
343.099	3.92
343.465	4.1
343.831	4.3
344.197	4.47
344.563	4.35
344.929	4.27
345.295	4.42
345.661	4.62
346.027	4.73
346.393	4.88
346.759	4.98
347.125	5.15
347.491	5.38
347.856	5.47
348.222	5.51
348.588	5.7
348.953	5.76
349.319	5.84
349.684	5.86
350.05	5.96
350.415	6.13
350.781	6.29
351.146	6.5
351.512	6.56
351.877	6.65
352.242	6.85
352.608	7.01
352.973	7.08
353.338	7.08
353.703	7.15
354.068	7.21
354.433	7.26
354.798	7.31
355.164	7.31
355.528	7.34
355.893	7.47
356.258	7.51
356.623	7.6
356.988	7.74
357.353	7.98
357.718	8.12
358.082	8.15
358.447	8.06
358.812	8.03
359.176	8.06
359.541	8.07
359.905	8.04
360.27	8.05
360.634	8.12
360.999	8.15
361.363	8.24
361.728	8.24
362.092	8.31
362.456	8.33
362.821	8.42
363.185	8.49
363.549	8.54
363.913	8.57
364.277	8.56
364.641	8.63
365.005	8.64
365.369	8.7
365.733	8.8
366.097	8.97
366.461	9.06
366.825	9.16
367.189	9.26
367.553	9.4
367.916	9.58
368.28	9.62
368.644	9.85
369.007	9.94
369.371	10.02
369.734	10.16
370.098	10.3
370.461	10.36
370.825	10.41
371.188	10.58
371.552	10.74
371.915	10.85
372.278	10.88
372.642	10.97
373.005	11.04
373.368	11.09
373.731	11.15
374.094	11.17
374.457	11.2
374.82	11.22
375.183	11.29
375.546	11.31
375.909	11.36
376.272	11.32
376.635	11.27
376.998	11.32
377.361	11.3
377.723	11.31
378.086	11.4
378.449	11.5
378.811	11.51
379.174	11.53
379.537	11.59
379.899	11.68
380.262	11.73
380.624	11.76
380.987	11.81
381.349	11.84
381.711	11.93
382.074	12
382.436	12.1
382.798	12.06
383.16	12.04
383.522	12.07
383.884	12.18
384.247	12.3
384.609	12.33
384.971	12.42
385.333	12.48
385.695	12.47
386.056	12.43
386.418	12.4
386.78	12.39
387.142	12.39
387.504	12.32
387.865	12.3
388.227	12.32
388.589	12.29
388.95	12.29
389.312	12.26
389.673	12.23
390.035	12.22
390.396	12.23
390.758	12.23
391.119	12.22
391.48	12.13
391.842	12.11
392.203	12.1
392.564	12.02
392.925	11.97
393.286	11.95
393.648	11.98
394.009	12.01
394.37	11.99
394.731	11.97
395.092	11.94
395.452	11.91
395.813	11.86
396.174	11.87
396.535	11.83
396.896	11.82
397.257	11.81
397.617	11.79
397.978	11.82
398.338	11.87
398.699	11.91
399.06	11.93
399.42	11.89
399.781	11.86
400.141	11.81
400.501	11.77
400.862	11.75
401.222	11.74
401.582	11.71
401.943	11.69
402.303	11.7
402.663	11.73
403.023	11.7
403.383	11.66
403.743	11.65
404.103	11.65
404.463	11.68
404.823	11.71
405.183	11.7
405.543	11.67
405.903	11.64
406.262	11.62
406.622	11.6
406.982	11.63
407.342	11.65
407.701	11.68
408.061	11.67
408.42	11.68
408.78	11.66
409.139	11.66
409.499	11.68
409.858	11.67
410.217	11.65
410.577	11.68
410.936	11.71
411.295	11.7
411.655	11.67
412.014	11.63
412.373	11.58
412.732	11.52
413.091	11.49
413.45	11.44
413.809	11.38
414.168	11.29
414.527	11.18
414.886	11.07
415.245	10.98
415.603	10.9
415.962	10.79
416.321	10.7
416.679	10.6
417.038	10.5
417.397	10.37
417.755	10.26
418.114	10.17
418.472	10.07
418.831	10.01
419.189	9.96
419.547	9.89
419.906	9.82
420.264	9.76
420.622	9.69
420.981	9.61
421.339	9.56
421.697	9.52
422.055	9.48
422.413	9.45
422.771	9.43
423.129	9.42
423.487	9.42
423.845	9.41
424.203	9.4
424.56	9.38
424.918	9.4
425.276	9.44
425.634	9.47
425.991	9.48
426.349	9.48
426.707	9.49
427.064	9.51
427.422	9.53
427.779	9.56
428.137	9.61
428.494	9.66
428.851	9.69
429.209	9.72
429.566	9.75
429.923	9.76
430.28	9.78
430.637	9.81
430.995	9.8
431.352	9.81
431.709	9.85
432.066	9.87
432.423	9.9
432.78	9.91
433.137	9.92
433.493	9.98
433.85	10.03
434.207	10.03
434.564	10.03
434.92	10.04
435.277	10.05
435.634	10.05
435.99	10.06
436.347	10.05
436.703	10.07
437.06	10.09
437.416	10.1
437.773	10.1
438.129	10.09
438.485	10.11
438.841	10.11
439.198	10.09
439.554	10.1
439.91	10.11
440.266	10.09
440.622	10.08
440.978	10.02
441.334	9.95
441.69	9.94
442.046	9.88
442.402	9.83
442.758	9.76
443.113	9.71
443.469	9.64
443.825	9.61
444.181	9.57
444.536	9.53
444.892	9.48
445.247	9.45
445.603	9.41
445.958	9.38
446.314	9.34
446.669	9.3
447.025	9.27
447.38	9.22
447.735	9.18
448.09	9.14
448.446	9.11
448.801	9.1
449.156	9.06
449.511	9.05
449.866	9.02
450.221	9.04
450.576	9.03
450.931	9.05
451.286	9.03
451.641	9
451.995	9.01
452.35	9.03
452.705	9.03
453.06	9.02
453.414	9.02
453.769	9.05
454.123	9.05
454.478	9.04
454.832	9.04
455.187	9.05
455.541	9.03
455.896	9.01
456.25	9.01
456.604	9.02
456.958	9.03
457.313	9.06
457.667	9.08
458.021	9.13
458.375	9.17
458.729	9.22
459.083	9.28
459.437	9.33
459.791	9.36
460.145	9.42
460.499	9.49
460.852	9.54
461.206	9.59
461.56	9.67
461.914	9.74
462.267	9.81
462.621	9.93
462.974	10.06
463.328	10.24
463.681	10.39
464.035	10.54
464.388	10.71
464.742	10.86
465.095	11.01
465.448	11.12
465.801	11.24
466.155	11.36
466.508	11.46
466.861	11.53
467.214	11.64
467.567	11.72
467.92	11.81
468.273	11.9
468.626	11.99
468.979	12.04
469.332	12.09
469.684	12.15
470.037	12.19
470.39	12.23
470.743	12.27
471.095	12.3
471.448	12.35
471.8	12.38
472.153	12.39
472.505	12.37
472.858	12.37
473.21	12.29
473.562	12.25
473.915	12.19
474.267	12.15
474.619	12.08
474.971	12
475.324	11.89
475.676	11.83
476.028	11.74
476.38	11.65
476.732	11.56
477.084	11.44
477.436	11.33
477.787	11.2
478.139	11.05
478.491	10.95
478.843	10.79
479.195	10.64
479.546	10.42
479.898	10.17
480.249	9.91
480.601	9.72
480.952	9.58
481.304	9.48
481.655	9.42
482.007	9.37
482.358	9.33
482.709	9.3
483.061	9.24
483.412	9.21
483.763	9.17
484.114	9.15
484.465	9.13
484.816	9.11
485.167	9.11
485.518	9.11
485.869	9.11
486.22	9.13
486.571	9.15
486.922	9.2
487.272	9.26
487.623	9.35
487.974	9.46
488.324	9.56
488.675	9.65
489.025	9.75
489.376	9.83
489.726	9.92
490.077	10.01
490.427	10.12
490.778	10.24
491.128	10.39
491.478	10.55
491.828	10.74
492.179	10.93
492.529	11.13
492.879	11.34
493.229	11.53
493.579	11.69
493.929	11.86
494.279	12.03
494.629	12.24
494.979	12.5
495.328	12.8
495.678	13.14
496.028	13.48
496.378	13.78
496.727	14.06
497.077	14.31
497.426	14.55
497.776	14.77
498.125	14.99
498.475	15.21
498.824	15.42
499.174	15.61
499.523	15.8
499.872	16.01
500.221	16.21
500.571	16.44
500.92	16.69
501.269	16.92
501.618	17.13
501.967	17.31
502.316	17.5
502.665	17.68
503.014	17.86
503.363	18.05
503.711	18.21
504.06	18.38
504.409	18.51
504.758	18.62
505.106	18.72
505.455	18.84
505.803	18.91
506.152	19
506.5	19.09
506.849	19.22
507.197	19.29
507.546	19.38
507.894	19.46
508.242	19.54
508.59	19.59
508.939	19.64
509.287	19.7
509.635	19.74
509.983	19.79
510.331	19.82
510.679	19.84
511.027	19.84
511.375	19.86
511.723	19.9
512.07	19.94
512.418	20.01
512.766	20.03
513.114	20.08
513.461	20.08
513.809	20.1
514.156	20.07
514.504	20.08
514.851	20.05
515.199	20.03
515.546	19.99
515.893	19.97
516.241	19.96
516.588	19.97
516.935	19.99
517.282	19.99
517.63	19.99
517.977	20
518.324	19.99
518.671	20
519.018	19.97
519.365	19.95
519.711	19.91
520.058	19.9
520.405	19.86
520.752	19.86
521.099	19.85
521.445	19.84
521.792	19.79
522.138	19.77
522.485	19.74
522.832	19.73
523.178	19.72
523.524	19.69
523.871	19.64
524.217	19.55
524.563	19.45
524.91	19.31
525.256	19.19
525.602	19.11
525.948	19.04
526.294	19.02
526.64	18.98
526.986	18.97
527.332	18.97
527.678	18.96
528.024	18.94
528.37	18.93
528.716	18.91
529.061	18.89
529.407	18.85
529.753	18.8
530.098	18.75
530.444	18.72
530.789	18.7
531.135	18.68
531.48	18.69
531.826	18.69
532.171	18.71
532.516	18.72
532.862	18.71
533.207	18.68
533.552	18.63
533.897	18.61
534.242	18.56
534.587	18.51
534.932	18.49
535.277	18.45
535.622	18.41
535.967	18.41
536.312	18.39
536.657	18.38
537.001	18.33
537.346	18.28
537.691	18.18
538.035	18.08
538.38	18
538.724	17.91
539.069	17.87
539.413	17.81
539.758	17.77
540.102	17.76
540.446	17.73
540.791	17.7
541.135	17.67
541.479	17.64
541.823	17.6
542.167	17.53
542.512	17.49
542.856	17.44
543.2	17.38
543.543	17.33
543.887	17.29
544.231	17.28
544.575	17.28
544.919	17.27
545.262	17.26
545.606	17.26
545.95	17.25
546.293	17.2
546.637	17.18
546.98	17.13
547.324	17.07
547.667	17.03
548.011	16.96
548.354	16.91
548.697	16.86
549.04	16.82
549.384	16.81
549.727	16.75
550.07	16.73
550.413	16.71
550.756	16.66
551.099	16.62
551.442	16.57
551.785	16.53
552.128	16.48
552.47	16.4
552.813	16.32
553.156	16.24
553.499	16.18
553.841	16.12
554.184	16.08
554.526	16.01
554.869	15.94
555.211	15.92
555.554	15.88
555.896	15.84
556.238	15.78
556.581	15.71
556.923	15.66
557.265	15.59
557.607	15.52
557.949	15.47
558.291	15.41
558.633	15.35
558.975	15.28
559.317	15.22
559.659	15.17
560.001	15.12
560.343	15.07
560.685	15
561.026	14.93
561.368	14.85
561.71	14.79
562.051	14.73
562.393	14.68
562.734	14.64
563.076	14.56
563.417	14.52
563.759	14.47
564.1	14.4
564.441	14.36
564.782	14.3
565.124	14.26
565.465	14.23
565.806	14.16
566.147	14.11
566.488	14.07
566.829	14.02
567.17	13.98
567.511	13.92
567.851	13.88
568.192	13.84
568.533	13.78
568.874	13.75
569.214	13.73
569.555	13.66
569.895	13.6
570.236	13.57
570.576	13.52
570.917	13.45
571.257	13.39
571.598	13.3
571.938	13.23
572.278	13.18
572.618	13.12
572.959	13.07
573.299	13.02
573.639	12.95
573.979	12.87
574.319	12.84
574.659	12.8
574.999	12.77
575.339	12.7
575.678	12.67
576.018	12.58
576.358	12.48
576.698	12.41
577.037	12.34
577.377	12.25
577.716	12.17
578.056	12.14
578.395	12.1
578.735	12.06
579.074	11.98
579.413	11.91
579.753	11.84
580.092	11.81
580.431	11.76
580.77	11.72
581.109	11.72
581.448	11.64
581.787	11.58
582.126	11.49
582.465	11.47
582.804	11.45
583.143	11.42
583.482	11.38
583.82	11.37
584.159	11.34
584.498	11.32
584.836	11.28
585.175	11.24
585.514	11.19
585.852	11.15
586.19	11.12
586.529	11.12
586.867	11.11
587.205	11.09
587.544	11.06
587.882	11.02
588.22	10.96
588.558	10.95
588.896	10.93
589.234	10.92
589.572	10.87
589.91	10.81
590.248	10.77
590.586	10.76
590.924	10.72
591.262	10.69
591.599	10.69
591.937	10.67
592.275	10.63
592.612	10.62
592.95	10.62
593.287	10.62
593.625	10.62
593.962	10.63
594.299	10.63
594.637	10.62
594.974	10.64
595.311	10.66
595.648	10.65
595.985	10.63
596.322	10.63
596.659	10.6
596.996	10.59
597.333	10.56
597.67	10.53
598.007	10.51
598.344	10.49
598.681	10.44
599.017	10.4
599.354	10.41
599.691	10.4
600.027	10.37
600.364	10.35
600.7	10.29
601.037	10.26
601.373	10.2
601.71	10.18
602.046	10.17
602.382	10.13
602.718	10.1
603.054	10.08
603.391	10.07
603.727	10.06
604.063	10.05
604.399	10.05
604.735	10.05
605.071	10.06
605.406	10.05
605.742	10.05
606.078	10.06
606.414	10.06
606.749	10.04
607.085	10.04
607.421	10.02
607.756	10
608.092	9.95
608.427	9.9
608.762	9.87
609.098	9.79
609.433	9.72
609.768	9.67
610.104	9.65
610.439	9.6
610.774	9.59
611.109	9.55
611.444	9.54
611.779	9.5
612.114	9.45
612.449	9.4
612.784	9.36
613.118	9.3
613.453	9.24
613.788	9.17
614.123	9.04
614.457	8.95
614.792	8.9
615.126	8.83
615.461	8.79
615.795	8.73
616.13	8.72
616.464	8.73
616.798	8.71
617.132	8.71
617.467	8.68
617.801	8.62
618.135	8.65
618.469	8.6
618.803	8.55
619.137	8.49
619.471	8.47
619.805	8.43
620.139	8.41
620.472	8.37
620.806	8.36
621.14	8.37
621.473	8.38
621.807	8.33
622.141	8.34
622.474	8.33
622.808	8.34
623.141	8.32
623.474	8.31
623.808	8.34
624.141	8.33
624.474	8.32
624.807	8.33
625.141	8.31
625.474	8.33
625.807	8.36
626.14	8.4
626.473	8.38
626.806	8.41
627.138	8.42
627.471	8.41
627.804	8.39
628.137	8.39
628.469	8.38
628.802	8.36
629.135	8.32
629.467	8.3
629.8	8.23
630.132	8.21
630.465	8.17
630.797	8.12
631.129	8.09
631.461	8.12
631.794	8.11
632.126	8.06
632.458	8.02
632.79	7.99
633.122	7.97
633.454	7.99
633.786	7.94
634.118	7.9
634.45	7.86
634.781	7.85
635.113	7.84
635.445	7.83
635.777	7.84
636.108	7.86
636.44	7.84
636.771	7.86
637.103	7.82
637.434	7.82
637.765	7.82
638.097	7.79
638.428	7.73
638.759	7.69
639.09	7.66
639.422	7.6
639.753	7.57
640.084	7.51
640.415	7.47
640.746	7.45
641.077	7.42
641.407	7.4
641.738	7.38
642.069	7.37
642.4	7.35
642.73	7.32
643.061	7.29
643.392	7.29
643.722	7.28
644.053	7.27
644.383	7.24
644.713	7.19
645.044	7.14
645.374	7.11
645.704	7.08
646.034	7.12
646.365	7.2
646.695	7.23
647.025	7.25
647.355	7.26
647.685	7.27
648.015	7.3
648.344	7.34
648.674	7.41
649.004	7.46
649.334	7.49
649.663	7.53
