Data from pcis_p_h3_p4_Reflection_3.txt Node
Date: Wed Jul 12 17:54:11 ART 2017
User: rodoncho
Spectrometer: USB2E3644
Trigger mode: 4
Integration Time (sec): 6.000000E-2
Scans to average: 10
Electric dark correction enabled: true
Nonlinearity correction enabled: false
Boxcar width: 10
XAxis mode: Wavelengths
Number of Pixels in Spectrum: 2048
>>>>>Begin Spectral Data<<<<<
178.315	99.49
178.696	87.06
179.076	63.73
179.457	32
179.838	18.11
180.218	-11.36
180.599	-528.57
180.979	42.86
181.36	132.12
181.74	30.43
182.121	278.95
182.501	110.05
182.881	126.91
183.262	169.86
183.642	-564.52
184.022	42.54
184.402	89.3
184.783	95.14
185.163	97.2
185.543	97.69
185.923	103.94
186.303	99.83
186.683	94.76
187.063	99.46
187.443	95.15
187.823	98.86
188.203	106.22
188.583	111.14
188.963	109.17
189.343	105.31
189.723	102.87
190.102	102.29
190.482	105.7
190.862	107.79
191.242	109.58
191.621	110.54
192.001	106.97
192.38	106.39
192.76	106.63
193.14	106.16
193.519	105.42
193.898	109.52
194.278	112.05
194.657	114.03
195.037	110.97
195.416	108.67
195.795	106.45
196.175	103.97
196.554	101.71
196.933	104.25
197.312	109.37
197.692	110.81
198.071	110.98
198.45	112.49
198.829	113.18
199.208	113.23
199.587	114.86
199.966	114.49
200.345	115.63
200.724	115.92
201.103	117.18
201.482	116.89
201.86	115.63
202.239	117.48
202.618	116.25
202.997	116.71
203.375	118.39
203.754	118.66
204.133	118.59
204.511	119.24
204.89	118.19
205.269	116.17
205.647	114.66
206.026	116.09
206.404	114.64
206.782	112.67
207.161	112.98
207.539	112.66
207.918	113.66
208.296	111.77
208.674	111.49
209.052	111.65
209.431	110.63
209.809	108.73
210.187	106.06
210.565	106.08
210.943	106.53
211.321	106.42
211.699	106.54
212.077	105.33
212.455	104.95
212.833	105.27
213.211	104.28
213.589	106.53
213.967	106.91
214.345	107.65
214.722	107.88
215.1	106.71
215.478	105.09
215.855	104.45
216.233	105.42
216.611	105.52
216.988	105.49
217.366	106.76
217.743	108.13
218.121	108.77
218.498	108.64
218.876	108.02
219.253	109.14
219.631	109.24
220.008	111.19
220.385	111.88
220.762	112.23
221.14	113.78
221.517	111.32
221.894	109.59
222.271	108.59
222.648	108.3
223.025	107.94
223.402	108.59
223.78	108.67
224.157	107.76
224.533	107.69
224.91	106.79
225.287	105.38
225.664	104.25
226.041	104.67
226.418	103.96
226.795	104.15
227.171	105.03
227.548	106.77
227.925	107.2
228.301	109.73
228.678	109.63
229.055	108.34
229.431	109.78
229.808	110.36
230.184	111.04
230.561	113.51
230.937	113.92
231.313	114.53
231.69	114.93
232.066	115.92
232.442	116.72
232.819	118.21
233.195	119.63
233.571	121.05
233.947	121.67
234.323	122.66
234.699	122.17
235.075	121.47
235.451	120.3
235.827	119.27
236.203	116.58
236.579	115.72
236.955	116.3
237.331	117.25
237.707	120.09
238.083	123.17
238.459	126.1
238.834	133.1
239.21	137.96
239.586	143.09
239.961	147.03
240.337	149.32
240.713	150.31
241.088	151.58
241.464	154.21
241.839	159.79
242.215	169.54
242.59	186.32
242.965	213.66
243.341	270.89
243.716	367.08
244.091	551.77
244.467	858.58
244.842	1909.83
245.217	-18892.45
245.592	-4701.86
245.967	-3478.84
246.343	-5186.29
246.718	-12280.72
247.093	-21521.28
247.468	-21329.79
247.843	-4227.2
248.218	-1728.57
248.593	-994.31
248.967	-690.41
249.342	-599.22
249.717	-623.29
250.092	-665.45
250.467	-771.35
250.841	-1149.48
251.216	-9335.51
251.591	1485.27
251.965	749.37
252.34	578.87
252.714	497.09
253.089	411.57
253.463	398.16
253.838	400.04
254.212	423.97
254.587	465.14
254.961	544.74
255.335	812.02
255.71	2234.35
256.084	-1241.53
256.458	-459.62
256.832	-303.84
257.206	-240.49
257.581	-211.06
257.955	-193.92
258.329	-184.41
258.703	-174.33
259.077	-166.64
259.451	-157.4
259.825	-147.76
260.199	-139.69
260.572	-134.79
260.946	-127.97
261.32	-124.53
261.694	-119.86
262.068	-116.18
262.441	-112.95
262.815	-109.95
263.189	-111.48
263.562	-116.52
263.936	-132.23
264.309	-156.36
264.683	-185.32
265.056	-208.6
265.43	-215.3
265.803	-211.09
266.176	-200.9
266.55	-195.64
266.923	-187.94
267.296	-177.67
267.67	-167.99
268.043	-156.45
268.416	-145.27
268.789	-132.77
269.162	-121.19
269.535	-112.85
269.908	-108.07
270.281	-106.04
270.654	-107.5
271.027	-109.75
271.4	-112.31
271.773	-112.55
272.146	-112.1
272.519	-105.83
272.891	-101.9
273.264	-100.91
273.637	-100.39
274.01	-100.72
274.382	-100.46
274.755	-98.05
275.127	-97.59
275.5	-97.27
275.872	-96.05
276.245	-95.51
276.617	-98.66
276.99	-102.57
277.362	-106.72
277.734	-106.76
278.107	-103.45
278.479	-98.85
278.851	-94.43
279.223	-90.17
279.596	-88.1
279.968	-87.19
280.34	-88.39
280.712	-86.65
281.084	-82.14
281.456	-76.36
281.828	-70.44
282.2	-64.5
282.572	-60.61
282.944	-58.03
283.315	-57.13
283.687	-57.05
284.059	-56.62
284.431	-55.65
284.802	-54.73
285.174	-52.94
285.546	-51.73
285.917	-51.38
286.289	-49.95
286.66	-48.44
287.032	-48.02
287.403	-47.04
287.775	-46.26
288.146	-45.71
288.518	-45
288.889	-45.08
289.26	-46
289.632	-46.94
290.003	-48.8
290.374	-51.06
290.745	-51.95
291.116	-51.38
291.487	-50.45
291.858	-49.38
292.229	-48.62
292.6	-46.63
292.971	-45.05
293.342	-42.62
293.713	-40.23
294.084	-38.82
294.455	-38.53
294.826	-37.7
295.196	-37.73
295.567	-37.43
295.938	-37.05
296.308	-37.24
296.679	-36.24
297.05	-35.69
297.42	-35.25
297.791	-34.44
298.161	-33.15
298.532	-32.39
298.902	-31.83
299.272	-31.21
299.643	-30.71
300.013	-29.88
300.383	-29.39
300.754	-29.36
301.124	-29.5
301.494	-29.55
301.864	-29.84
302.234	-29.31
302.604	-29.52
302.974	-29.29
303.344	-28.97
303.714	-28.58
304.084	-27.35
304.454	-26.94
304.824	-25.83
305.194	-25
305.563	-24.23
305.933	-23.18
306.303	-21.85
306.673	-21.18
307.042	-20.71
307.412	-20.14
307.781	-18.95
308.151	-18.41
308.521	-17.69
308.89	-17.52
309.259	-17.07
309.629	-16.56
309.998	-16.59
310.368	-16.37
310.737	-16.07
311.106	-15.68
311.475	-15.21
311.845	-15.15
312.214	-14.63
312.583	-14.31
312.952	-13.95
313.321	-13.67
313.69	-13.85
314.059	-14.33
314.428	-14.3
314.797	-14.37
315.166	-14.67
315.535	-15.24
315.904	-15.41
316.272	-15.68
316.641	-15.87
317.01	-16.09
317.379	-16.25
317.747	-15.75
318.116	-15.24
318.484	-15.1
318.853	-14.67
319.221	-14.43
319.59	-14.25
319.958	-14.43
320.327	-14.31
320.695	-13.96
321.063	-13.7
321.432	-12.96
321.8	-12.41
322.168	-11.57
322.536	-10.94
322.905	-9.89
323.273	-9.34
323.641	-9.01
324.009	-9.09
324.377	-8.76
324.745	-8.47
325.113	-8.11
325.481	-7.73
325.849	-7.28
326.216	-6.44
326.584	-6.03
326.952	-5.76
327.32	-5.34
327.687	-4.83
328.055	-4.45
328.423	-4.34
328.79	-4.3
329.158	-4.35
329.525	-3.81
329.893	-3.69
330.26	-3.43
330.628	-3.73
330.995	-3.48
331.362	-3.06
331.73	-2.22
332.097	-1.68
332.464	-1.23
332.831	-0.83
333.199	-0.51
333.566	-0.08
333.933	-0.05
334.3	0.06
334.667	0.37
335.034	0.53
335.401	0.74
335.768	0.91
336.135	1.23
336.502	1.7
336.868	2.17
337.235	2.32
337.602	2.62
337.969	2.91
338.335	3.41
338.702	3.74
339.069	4.01
339.435	4.25
339.802	4.37
340.168	4.52
340.535	4.72
340.901	4.79
341.267	4.86
341.634	5.18
342	5.39
342.366	5.65
342.733	5.92
343.099	6.07
343.465	6.34
343.831	6.54
344.197	6.68
344.563	6.66
344.929	6.86
345.295	7.09
345.661	7.26
346.027	7.31
346.393	7.28
346.759	7.34
347.125	7.31
347.491	7.47
347.856	7.58
348.222	7.63
348.588	7.81
348.953	7.89
349.319	7.93
349.684	7.99
350.05	8.05
350.415	8.28
350.781	8.53
351.146	8.65
351.512	8.67
351.877	8.75
352.242	8.93
352.608	8.89
352.973	8.8
353.338	8.87
353.703	9.09
354.068	9.34
354.433	9.48
354.798	9.64
355.164	9.7
355.528	9.75
355.893	9.92
356.258	10.08
356.623	10.2
356.988	10.36
357.353	10.56
357.718	10.71
358.082	10.8
358.447	10.68
358.812	10.71
359.176	10.83
359.541	10.96
359.905	11.11
360.27	11.26
360.634	11.46
360.999	11.55
361.363	11.66
361.728	11.65
362.092	11.68
362.456	11.78
362.821	11.89
363.185	11.98
363.549	12.05
363.913	12.11
364.277	12.19
364.641	12.21
365.005	12.29
365.369	12.34
365.733	12.38
366.097	12.63
366.461	12.76
366.825	12.83
367.189	12.96
367.553	13.05
367.916	13.17
368.28	13.24
368.644	13.38
369.007	13.48
369.371	13.66
369.734	13.74
370.098	13.85
370.461	13.99
370.825	14.12
371.188	14.24
371.552	14.34
371.915	14.47
372.278	14.64
372.642	14.8
373.005	14.87
373.368	14.97
373.731	15.01
374.094	15.07
374.457	15.15
374.82	15.2
375.183	15.23
375.546	15.26
375.909	15.31
376.272	15.38
376.635	15.4
376.998	15.43
377.361	15.49
377.723	15.54
378.086	15.64
378.449	15.74
378.811	15.8
379.174	15.86
379.537	15.88
379.899	15.94
380.262	16.01
380.624	16.02
380.987	16.06
381.349	16.07
381.711	16.08
382.074	16.13
382.436	16.21
382.798	16.26
383.16	16.29
383.522	16.35
383.884	16.37
384.247	16.48
384.609	16.52
384.971	16.55
385.333	16.6
385.695	16.59
386.056	16.56
386.418	16.51
386.78	16.57
387.142	16.59
387.504	16.54
387.865	16.48
388.227	16.51
388.589	16.58
388.95	16.64
389.312	16.64
389.673	16.7
390.035	16.69
390.396	16.69
390.758	16.7
391.119	16.69
391.48	16.7
391.842	16.71
392.203	16.71
392.564	16.72
392.925	16.71
393.286	16.68
393.648	16.72
394.009	16.77
394.37	16.76
394.731	16.73
395.092	16.72
395.452	16.73
395.813	16.76
396.174	16.73
396.535	16.72
396.896	16.76
397.257	16.76
397.617	16.77
397.978	16.82
398.338	16.87
398.699	16.9
399.06	16.94
399.42	16.89
399.781	16.93
400.141	16.92
400.501	16.94
400.862	16.98
401.222	16.95
401.582	16.96
401.943	16.95
402.303	16.99
402.663	17.01
403.023	17.02
403.383	17.01
403.743	17
404.103	17.05
404.463	17.08
404.823	17.09
405.183	17.11
405.543	17.12
405.903	17.13
406.262	17.12
406.622	17.13
406.982	17.12
407.342	17.14
407.701	17.16
408.061	17.16
408.42	17.15
408.78	17.18
409.139	17.18
409.499	17.18
409.858	17.19
410.217	17.23
410.577	17.25
410.936	17.27
411.295	17.32
411.655	17.27
412.014	17.24
412.373	17.2
412.732	17.14
413.091	17.09
413.45	17.03
413.809	17
414.168	16.94
414.527	16.89
414.886	16.8
415.245	16.75
415.603	16.67
415.962	16.57
416.321	16.48
416.679	16.39
417.038	16.3
417.397	16.2
417.755	16.11
418.114	16.03
418.472	15.96
418.831	15.9
419.189	15.84
419.547	15.79
419.906	15.73
420.264	15.67
420.622	15.61
420.981	15.56
421.339	15.52
421.697	15.47
422.055	15.42
422.413	15.41
422.771	15.39
423.129	15.37
423.487	15.37
423.845	15.37
424.203	15.38
424.56	15.38
424.918	15.42
425.276	15.44
425.634	15.46
425.991	15.48
426.349	15.49
426.707	15.51
427.064	15.52
427.422	15.57
427.779	15.63
428.137	15.69
428.494	15.75
428.851	15.77
429.209	15.83
429.566	15.86
429.923	15.85
430.28	15.84
430.637	15.88
430.995	15.85
431.352	15.91
431.709	15.89
432.066	15.94
432.423	15.94
432.78	15.96
433.137	15.97
433.493	15.99
433.85	16.03
434.207	16.02
434.564	16.02
434.92	16.03
435.277	16.02
435.634	16.01
435.99	15.98
436.347	15.97
436.703	15.95
437.06	15.97
437.416	15.98
437.773	15.97
438.129	15.96
438.485	15.98
438.841	15.96
439.198	15.95
439.554	15.93
439.91	15.93
440.266	15.91
440.622	15.89
440.978	15.88
441.334	15.83
441.69	15.81
442.046	15.79
442.402	15.74
442.758	15.67
443.113	15.64
443.469	15.62
443.825	15.6
444.181	15.59
444.536	15.56
444.892	15.55
445.247	15.53
445.603	15.51
445.958	15.49
446.314	15.47
446.669	15.45
447.025	15.43
447.38	15.4
447.735	15.37
448.09	15.36
448.446	15.33
448.801	15.32
449.156	15.31
449.511	15.31
449.866	15.31
450.221	15.35
450.576	15.34
450.931	15.34
451.286	15.35
451.641	15.34
451.995	15.33
452.35	15.35
452.705	15.34
453.06	15.35
453.414	15.38
453.769	15.4
454.123	15.41
454.478	15.42
454.832	15.4
455.187	15.4
455.541	15.39
455.896	15.36
456.25	15.34
456.604	15.34
456.958	15.33
457.313	15.34
457.667	15.36
458.021	15.4
458.375	15.45
458.729	15.48
459.083	15.52
459.437	15.56
459.791	15.58
460.145	15.62
460.499	15.67
460.852	15.71
461.206	15.74
461.56	15.79
461.914	15.85
462.267	15.92
462.621	16
462.974	16.08
463.328	16.21
463.681	16.33
464.035	16.44
464.388	16.57
464.742	16.66
465.095	16.74
465.448	16.83
465.801	16.9
466.155	16.96
466.508	17.02
466.861	17.1
467.214	17.17
467.567	17.24
467.92	17.26
468.273	17.3
468.626	17.33
468.979	17.37
469.332	17.39
469.684	17.44
470.037	17.46
470.39	17.5
470.743	17.54
471.095	17.57
471.448	17.6
471.8	17.62
472.153	17.64
472.505	17.66
472.858	17.64
473.21	17.62
473.562	17.61
473.915	17.57
474.267	17.52
474.619	17.49
474.971	17.44
475.324	17.42
475.676	17.36
476.028	17.34
476.38	17.29
476.732	17.24
477.084	17.18
477.436	17.1
477.787	17.04
478.139	16.96
478.491	16.88
478.843	16.78
479.195	16.66
479.546	16.52
479.898	16.34
480.249	16.19
480.601	16.07
480.952	15.98
481.304	15.93
481.655	15.89
482.007	15.84
482.358	15.82
482.709	15.79
483.061	15.77
483.412	15.74
483.763	15.72
484.114	15.69
484.465	15.68
484.816	15.68
485.167	15.67
485.518	15.67
485.869	15.68
486.22	15.69
486.571	15.72
486.922	15.75
487.272	15.8
487.623	15.87
487.974	15.94
488.324	16.02
488.675	16.08
489.025	16.15
489.376	16.23
489.726	16.29
490.077	16.36
490.427	16.44
490.778	16.53
491.128	16.64
491.478	16.77
491.828	16.91
492.179	17.04
492.529	17.2
492.879	17.35
493.229	17.49
493.579	17.63
493.929	17.75
494.279	17.88
494.629	18.03
494.979	18.22
495.328	18.42
495.678	18.66
496.028	18.91
496.378	19.13
496.727	19.3
497.077	19.47
497.426	19.66
497.776	19.81
498.125	19.97
498.475	20.13
498.824	20.27
499.174	20.41
499.523	20.58
499.872	20.72
500.221	20.89
500.571	21.06
500.92	21.22
501.269	21.37
501.618	21.53
501.967	21.69
502.316	21.85
502.665	22.01
503.014	22.15
503.363	22.27
503.711	22.4
504.06	22.53
504.409	22.67
504.758	22.77
505.106	22.89
505.455	22.99
505.803	23.09
506.152	23.15
506.5	23.22
506.849	23.3
507.197	23.36
507.546	23.44
507.894	23.5
508.242	23.57
508.59	23.64
508.939	23.7
509.287	23.75
509.635	23.81
509.983	23.86
510.331	23.92
510.679	24.01
511.027	24.06
511.375	24.13
511.723	24.17
512.07	24.22
512.418	24.27
512.766	24.31
513.114	24.36
513.461	24.42
513.809	24.49
514.156	24.5
514.504	24.55
514.851	24.56
515.199	24.58
515.546	24.61
515.893	24.64
516.241	24.65
516.588	24.68
516.935	24.69
517.282	24.71
517.63	24.7
517.977	24.7
518.324	24.69
518.671	24.7
519.018	24.73
519.365	24.73
519.711	24.75
520.058	24.76
520.405	24.76
520.752	24.75
521.099	24.75
521.445	24.78
521.792	24.78
522.138	24.79
522.485	24.85
522.832	24.84
523.178	24.86
523.524	24.9
523.871	24.92
524.217	24.93
524.563	24.9
524.91	24.9
525.256	24.91
525.602	24.91
525.948	24.9
526.294	24.84
526.64	24.81
526.986	24.8
527.332	24.8
527.678	24.79
528.024	24.81
528.37	24.81
528.716	24.8
529.061	24.8
529.407	24.8
529.753	24.78
530.098	24.79
530.444	24.8
530.789	24.8
531.135	24.79
531.48	24.8
531.826	24.83
532.171	24.84
532.516	24.83
532.862	24.83
533.207	24.87
533.552	24.91
533.897	24.94
534.242	24.96
534.587	24.97
534.932	25
535.277	25.01
535.622	25.03
535.967	25.06
536.312	25.08
536.657	25.11
537.001	25.11
537.346	25.09
537.691	25.09
538.035	25.08
538.38	25.08
538.724	25.04
539.069	25.02
539.413	25
539.758	25.02
540.102	25.01
540.446	24.97
540.791	24.98
541.135	24.99
541.479	25
541.823	25
542.167	25
542.512	24.97
542.856	24.96
543.2	24.95
543.543	24.94
543.887	24.93
544.231	24.95
544.575	24.98
544.919	24.97
545.262	25
545.606	25
545.95	25.04
546.293	25.06
546.637	25.09
546.98	25.09
547.324	25.1
547.667	25.13
548.011	25.13
548.354	25.11
548.697	25.09
549.04	25.07
549.384	25.07
549.727	25.09
550.07	25.09
550.413	25.09
550.756	25.1
551.099	25.13
551.442	25.13
551.785	25.12
552.128	25.1
552.47	25.06
552.813	25.06
553.156	25.04
553.499	25.01
553.841	24.99
554.184	25
554.526	25
554.869	24.98
555.211	25
555.554	25
555.896	24.97
556.238	24.94
556.581	24.93
556.923	24.91
557.265	24.89
557.607	24.84
557.949	24.83
558.291	24.76
558.633	24.69
558.975	24.63
559.317	24.63
559.659	24.59
560.001	24.57
560.343	24.54
560.685	24.51
561.026	24.49
561.368	24.42
561.71	24.4
562.051	24.37
562.393	24.32
562.734	24.27
563.076	24.27
563.417	24.25
563.759	24.23
564.1	24.2
564.441	24.18
564.782	24.16
565.124	24.14
565.465	24.12
565.806	24.11
566.147	24.1
566.488	24.07
566.829	24.04
567.17	23.99
567.511	23.96
567.851	23.94
568.192	23.91
568.533	23.88
568.874	23.88
569.214	23.89
569.555	23.87
569.895	23.85
570.236	23.81
570.576	23.8
570.917	23.76
571.257	23.75
571.598	23.71
571.938	23.7
572.278	23.69
572.618	23.7
572.959	23.69
573.299	23.68
573.639	23.66
573.979	23.62
574.319	23.6
574.659	23.58
574.999	23.55
575.339	23.54
575.678	23.55
576.018	23.46
576.358	23.4
576.698	23.36
577.037	23.37
577.377	23.37
577.716	23.36
578.056	23.35
578.395	23.33
578.735	23.3
579.074	23.24
579.413	23.2
579.753	23.16
580.092	23.16
580.431	23.14
580.77	23.15
581.109	23.17
581.448	23.14
581.787	23.14
582.126	23.14
582.465	23.09
582.804	23.03
583.143	23.02
583.482	23.02
583.82	22.95
584.159	22.89
584.498	22.85
584.836	22.8
585.175	22.76
585.514	22.74
585.852	22.76
586.19	22.76
586.529	22.75
586.867	22.74
587.205	22.74
587.544	22.73
587.882	22.7
588.22	22.67
588.558	22.69
588.896	22.68
589.234	22.64
589.572	22.64
589.91	22.62
590.248	22.63
590.586	22.64
590.924	22.66
591.262	22.67
591.599	22.69
591.937	22.67
592.275	22.69
592.612	22.67
592.95	22.64
593.287	22.66
593.625	22.67
593.962	22.67
594.299	22.64
594.637	22.61
594.974	22.61
595.311	22.6
595.648	22.62
595.985	22.6
596.322	22.59
596.659	22.57
596.996	22.56
597.333	22.53
597.67	22.48
598.007	22.47
598.344	22.44
598.681	22.4
599.017	22.38
599.354	22.33
599.691	22.34
600.027	22.3
600.364	22.29
600.7	22.26
601.037	22.23
601.373	22.2
601.71	22.2
602.046	22.2
602.382	22.24
602.718	22.19
603.054	22.18
603.391	22.18
603.727	22.17
604.063	22.19
604.399	22.19
604.735	22.19
605.071	22.18
605.406	22.21
605.742	22.23
606.078	22.25
606.414	22.26
606.749	22.26
607.085	22.29
607.421	22.25
607.756	22.23
608.092	22.22
608.427	22.18
608.762	22.17
609.098	22.14
609.433	22.05
609.768	22.06
610.104	22.01
610.439	22.01
610.774	22.01
611.109	21.97
611.444	21.95
611.779	21.98
612.114	21.98
612.449	21.93
612.784	21.85
613.118	21.8
613.453	21.81
613.788	21.74
614.123	21.71
614.457	21.7
614.792	21.67
615.126	21.56
615.461	21.58
615.795	21.5
616.13	21.5
616.464	21.53
616.798	21.48
617.132	21.5
617.467	21.47
617.801	21.42
618.135	21.44
618.469	21.46
618.803	21.41
619.137	21.41
619.471	21.38
619.805	21.42
620.139	21.37
620.472	21.31
620.806	21.3
621.14	21.21
621.473	21.19
621.807	21.12
622.141	21.18
622.474	21.17
622.808	21.16
623.141	21.14
623.474	21.14
623.808	21.17
624.141	21.17
624.474	21.21
624.807	21.27
625.141	21.25
625.474	21.24
625.807	21.19
626.14	21.14
626.473	21.16
626.806	21.17
627.138	21.19
627.471	21.2
627.804	21.2
628.137	21.23
628.469	21.22
628.802	21.24
629.135	21.17
629.467	21.16
629.8	21.19
630.132	21.22
630.465	21.22
630.797	21.22
631.129	21.21
631.461	21.18
631.794	21.15
632.126	21.09
632.458	21.05
632.79	21.07
633.122	21.12
633.454	21.12
633.786	21.09
634.118	21.08
634.45	21.1
634.781	21.13
635.113	21.11
635.445	21.1
635.777	21.11
636.108	21.17
636.44	21.16
636.771	21.08
637.103	21.05
637.434	21.01
637.765	21
638.097	20.97
638.428	20.89
638.759	20.84
639.09	20.85
639.422	20.86
639.753	20.86
640.084	20.84
640.415	20.84
640.746	20.86
641.077	20.78
641.407	20.79
641.738	20.74
642.069	20.73
642.4	20.74
642.73	20.74
643.061	20.67
