Data from pcis_c_m2_p4_Reflection_4.txt Node
Date: Wed Jul 12 17:35:04 ART 2017
User: rodoncho
Spectrometer: USB2E3644
Trigger mode: 4
Integration Time (sec): 6.000000E-2
Scans to average: 10
Electric dark correction enabled: true
Nonlinearity correction enabled: false
Boxcar width: 10
XAxis mode: Wavelengths
Number of Pixels in Spectrum: 2048
>>>>>Begin Spectral Data<<<<<
178.315	-74.24
178.696	-21.79
179.076	-2.99
179.457	34.58
179.838	46.24
180.218	88.1
180.599	66.67
180.979	-37.5
181.36	14.17
181.74	-240.48
182.121	3733.33
182.501	61.25
182.881	42.13
183.262	35.47
183.642	24.89
184.022	-25.64
184.402	-187.88
184.783	477.78
185.163	187.39
185.543	120.83
185.923	120.68
186.303	126.67
186.683	138.75
187.063	156.22
187.443	173.73
187.823	190.02
188.203	206.42
188.583	203.01
188.963	195.73
189.343	177.15
189.723	172.24
190.102	161
190.482	150.25
190.862	137.07
191.242	133.57
191.621	135.58
192.001	135.89
192.38	137.21
192.76	140.24
193.14	143.16
193.519	144.08
193.898	140.89
194.278	138.02
194.657	136.4
195.037	133.59
195.416	132.03
195.795	129.61
196.175	130.53
196.554	131.16
196.933	131.58
197.312	130.29
197.692	129.56
198.071	128.74
198.45	128.72
198.829	128.1
199.208	127.71
199.587	126.58
199.966	124.77
200.345	122.95
200.724	121.06
201.103	118.66
201.482	119.01
201.86	116.44
202.239	115.83
202.618	114.36
202.997	115.71
203.375	116.04
203.754	116.54
204.133	113.77
204.511	112.75
204.89	111.4
205.269	111.08
205.647	112.18
206.026	113.06
206.404	113.33
206.782	114.67
207.161	114.75
207.539	114.94
207.918	115.67
208.296	118.06
208.674	117.6
209.052	117.84
209.431	118.23
209.809	120.37
210.187	121.68
210.565	122.25
210.943	121.46
211.321	120.73
211.699	120.35
212.077	119.99
212.455	119.79
212.833	120.04
213.211	121.29
213.589	121.33
213.967	121.31
214.345	120.63
214.722	119.5
215.1	120.49
215.478	120.47
215.855	120.31
216.233	117.91
216.611	116.32
216.988	115.24
217.366	113.87
217.743	112.32
218.121	111.59
218.498	110.28
218.876	109
219.253	108.15
219.631	109.03
220.008	111.8
220.385	110.9
220.762	110.16
221.14	109.42
221.517	107.76
221.894	106.78
222.271	106.96
222.648	107.63
223.025	107.18
223.402	106.56
223.78	106.01
224.157	106.48
224.533	108.06
224.91	110.22
225.287	110.88
225.664	111.75
226.041	110.22
226.418	110.65
226.795	112.98
227.171	114.35
227.548	114.06
227.925	112.78
228.301	113.94
228.678	115.13
229.055	114.54
229.431	115.99
229.808	116.24
230.184	116.45
230.561	117.01
230.937	117.64
231.313	118.37
231.69	119.88
232.066	119.83
232.442	120.15
232.819	120.09
233.195	120.86
233.571	120.56
233.947	121.54
234.323	121.88
234.699	120.25
235.075	119.12
235.451	119.34
235.827	121.05
236.203	121.06
236.579	120.65
236.955	122.65
237.331	122.19
237.707	124.2
238.083	128.17
238.459	133.38
238.834	138.35
239.21	143.39
239.586	147.9
239.961	154.93
240.337	158.91
240.713	163.94
241.088	167.33
241.464	173.06
241.839	182.48
242.215	196.11
242.59	215.43
242.965	258.94
243.341	344.94
243.716	479.53
244.091	821.04
244.467	1777.19
244.842	-27972.22
245.217	-1746.74
245.592	-1192.54
245.967	-1138.06
246.343	-1317.59
246.718	-1459.42
247.093	-1431.32
247.468	-1389.36
247.843	-1348.24
248.218	-975.49
248.593	-690.48
248.967	-528.26
249.342	-470.99
249.717	-477
250.092	-484.78
250.467	-539.71
250.841	-759.4
251.216	-2143.11
251.591	3342.36
251.965	978.86
252.34	680.14
252.714	530.65
253.089	444.48
253.463	419.82
253.838	453.94
254.212	485.99
254.587	547.41
254.961	705.34
255.335	1385.88
255.71	-3196.73
256.084	-574.4
256.458	-329.61
256.832	-235.88
257.206	-198.9
257.581	-176.79
257.955	-167.06
258.329	-158.64
258.703	-145.9
259.077	-136.14
259.451	-130.56
259.825	-125.07
260.199	-120.52
260.572	-117.29
260.946	-112.77
261.32	-109.97
261.694	-106.33
262.068	-103.32
262.441	-102.74
262.815	-101.52
263.189	-103.02
263.562	-108.46
263.936	-125.25
264.309	-147.98
264.683	-172.81
265.056	-186.29
265.43	-196.43
265.803	-194.01
266.176	-183.35
266.55	-183.69
266.923	-184.05
267.296	-174.98
267.67	-163.59
268.043	-150.82
268.416	-140.7
268.789	-128.38
269.162	-116.21
269.535	-109.03
269.908	-105.1
270.281	-101.42
270.654	-101.54
271.027	-102.18
271.4	-103.3
271.773	-102.34
272.146	-99.7
272.519	-96.71
272.891	-94.1
273.264	-92.8
273.637	-90.95
274.01	-92.29
274.382	-91.81
274.755	-90.2
275.127	-90.11
275.5	-90.53
275.872	-91.98
276.245	-92.86
276.617	-95.89
276.99	-99.63
277.362	-101.66
277.734	-100.54
278.107	-99.44
278.479	-94.45
278.851	-91.23
279.223	-87.64
279.596	-86.7
279.968	-85.7
280.34	-86.16
280.712	-83.85
281.084	-78.82
281.456	-72.97
281.828	-67.96
282.2	-63.13
282.572	-58.79
282.944	-56.13
283.315	-54.65
283.687	-53.3
284.059	-51.89
284.431	-50.74
284.802	-50.03
285.174	-48.87
285.546	-47.85
285.917	-47.3
286.289	-46.33
286.66	-44.83
287.032	-44.2
287.403	-43.1
287.775	-42.47
288.146	-41.52
288.518	-41.39
288.889	-41.69
289.26	-43.1
289.632	-44.16
290.003	-45.46
290.374	-47.06
290.745	-47.91
291.116	-47.64
291.487	-46.4
291.858	-45
292.229	-44.09
292.6	-42.33
292.971	-41.05
293.342	-39.1
293.713	-36.8
294.084	-35.7
294.455	-35.3
294.826	-34.58
295.196	-34.54
295.567	-34.29
295.938	-34.12
296.308	-34.13
296.679	-33.04
297.05	-31.98
297.42	-30.87
297.791	-29.88
298.161	-28.79
298.532	-28.16
298.902	-27.7
299.272	-27.37
299.643	-27
300.013	-26.76
300.383	-26.55
300.754	-26.5
301.124	-26.75
301.494	-26.87
301.864	-27.04
302.234	-27.1
302.604	-27.39
302.974	-27.21
303.344	-26.69
303.714	-26.16
304.084	-25.55
304.454	-25.37
304.824	-24.92
305.194	-24.42
305.563	-23.82
305.933	-22.88
306.303	-21.53
306.673	-20.7
307.042	-20.27
307.412	-19.49
307.781	-18.35
308.151	-17.48
308.521	-16.84
308.89	-16.4
309.259	-16.18
309.629	-15.89
309.998	-15.99
310.368	-15.82
310.737	-15.36
311.106	-15.1
311.475	-14.5
311.845	-13.99
312.214	-13.66
312.583	-13.42
312.952	-13.13
313.321	-13.12
313.69	-13.21
314.059	-13.8
314.428	-14.14
314.797	-14.4
315.166	-15.19
315.535	-15.86
315.904	-16.26
316.272	-16.23
316.641	-16.4
317.01	-16.37
317.379	-16.17
317.747	-15.41
318.116	-14.95
318.484	-14.8
318.853	-14.48
319.221	-14.6
319.59	-14.37
319.958	-14.22
320.327	-14.06
320.695	-13.87
321.063	-13.24
321.432	-12.78
321.8	-11.97
322.168	-11.03
322.536	-10.15
322.905	-9.11
323.273	-8.71
323.641	-8.42
324.009	-8.46
324.377	-8.07
324.745	-7.87
325.113	-7.73
325.481	-7.44
325.849	-7.09
326.216	-6.76
326.584	-6.45
326.952	-6.26
327.32	-6.02
327.687	-5.67
328.055	-5.32
328.423	-5.16
328.79	-5.13
329.158	-5.13
329.525	-4.75
329.893	-4.53
330.26	-4.37
330.628	-4.34
330.995	-4.1
331.362	-3.71
331.73	-3.04
332.097	-2.61
332.464	-2.21
332.831	-1.9
333.199	-1.73
333.566	-1.43
333.933	-1.19
334.3	-1.05
334.667	-0.84
335.034	-0.57
335.401	-0.49
335.768	-0.5
336.135	-0.4
336.502	-0.2
336.868	0.05
337.235	0.08
337.602	0.19
337.969	0.37
338.335	0.66
338.702	1.07
339.069	1.26
339.435	1.33
339.802	1.31
340.168	1.52
340.535	1.79
340.901	1.86
341.267	1.9
341.634	2.16
342	2.45
342.366	2.72
342.733	2.75
343.099	2.96
343.465	3.24
343.831	3.46
344.197	3.69
344.563	3.85
344.929	4.03
345.295	4.3
345.661	4.51
346.027	4.62
346.393	4.66
346.759	4.6
347.125	4.66
347.491	4.91
347.856	5.02
348.222	5.05
348.588	5.25
348.953	5.41
349.319	5.5
349.684	5.44
350.05	5.55
350.415	5.74
350.781	5.93
351.146	6.17
351.512	6.33
351.877	6.42
352.242	6.44
352.608	6.5
352.973	6.49
353.338	6.62
353.703	6.69
354.068	6.79
354.433	7.02
354.798	7.28
355.164	7.38
355.528	7.39
355.893	7.39
356.258	7.48
356.623	7.56
356.988	7.7
357.353	8
357.718	8.14
358.082	8.22
358.447	8.21
358.812	8.22
359.176	8.27
359.541	8.28
359.905	8.4
360.27	8.49
360.634	8.59
360.999	8.59
361.363	8.74
361.728	8.79
362.092	8.77
362.456	8.74
362.821	8.74
363.185	8.84
363.549	9
363.913	9.09
364.277	9.12
364.641	9.11
365.005	9.08
365.369	9.08
365.733	9.14
366.097	9.26
366.461	9.32
366.825	9.44
367.189	9.6
367.553	9.72
367.916	9.85
368.28	9.96
368.644	10.15
369.007	10.2
369.371	10.3
369.734	10.46
370.098	10.57
370.461	10.77
370.825	10.83
371.188	10.9
371.552	11
371.915	11.14
372.278	11.27
372.642	11.43
373.005	11.55
373.368	11.62
373.731	11.66
374.094	11.71
374.457	11.74
374.82	11.77
375.183	11.79
375.546	11.82
375.909	11.87
376.272	11.82
376.635	11.85
376.998	11.9
377.361	11.91
377.723	11.95
378.086	11.94
378.449	12.05
378.811	12.15
379.174	12.21
379.537	12.25
379.899	12.33
380.262	12.34
380.624	12.37
380.987	12.44
381.349	12.53
381.711	12.62
382.074	12.68
382.436	12.77
382.798	12.79
383.16	12.79
383.522	12.84
383.884	12.95
384.247	13.02
384.609	13.11
384.971	13.18
385.333	13.23
385.695	13.26
386.056	13.27
386.418	13.22
386.78	13.26
387.142	13.28
387.504	13.29
387.865	13.29
388.227	13.31
388.589	13.33
388.95	13.33
389.312	13.27
389.673	13.28
390.035	13.25
390.396	13.31
390.758	13.34
391.119	13.32
391.48	13.33
391.842	13.32
392.203	13.3
392.564	13.29
392.925	13.27
393.286	13.31
393.648	13.31
394.009	13.32
394.37	13.27
394.731	13.26
395.092	13.22
395.452	13.22
395.813	13.22
396.174	13.22
396.535	13.21
396.896	13.25
397.257	13.27
397.617	13.29
397.978	13.3
398.338	13.32
398.699	13.34
399.06	13.3
399.42	13.28
399.781	13.26
400.141	13.24
400.501	13.24
400.862	13.22
401.222	13.25
401.582	13.26
401.943	13.25
402.303	13.23
402.663	13.26
403.023	13.27
403.383	13.26
403.743	13.23
404.103	13.24
404.463	13.25
404.823	13.23
405.183	13.2
405.543	13.17
405.903	13.14
406.262	13.13
406.622	13.12
406.982	13.12
407.342	13.11
407.701	13.11
408.061	13.1
408.42	13.06
408.78	13.01
409.139	12.99
409.499	12.98
409.858	13
410.217	12.96
410.577	12.93
410.936	12.9
411.295	12.89
411.655	12.87
412.014	12.81
412.373	12.76
412.732	12.73
413.091	12.69
413.45	12.66
413.809	12.61
414.168	12.54
414.527	12.44
414.886	12.33
415.245	12.25
415.603	12.2
415.962	12.12
416.321	12.04
416.679	11.96
417.038	11.9
417.397	11.79
417.755	11.72
418.114	11.66
418.472	11.6
418.831	11.55
419.189	11.5
419.547	11.46
419.906	11.41
420.264	11.34
420.622	11.27
420.981	11.21
421.339	11.15
421.697	11.09
422.055	11.06
422.413	11.05
422.771	11.03
423.129	11.01
423.487	11
423.845	10.99
424.203	10.97
424.56	10.97
424.918	10.98
425.276	10.99
425.634	11.01
425.991	11
426.349	10.99
426.707	10.98
427.064	10.99
427.422	10.99
427.779	11.01
428.137	11.01
428.494	11.06
428.851	11.08
429.209	11.12
429.566	11.12
429.923	11.1
430.28	11.09
430.637	11.07
430.995	11.02
431.352	11
431.709	11
432.066	10.97
432.423	10.96
432.78	10.94
433.137	10.91
433.493	10.9
433.85	10.9
434.207	10.85
434.564	10.81
434.92	10.79
435.277	10.76
435.634	10.76
435.99	10.69
436.347	10.65
436.703	10.6
437.06	10.57
437.416	10.54
437.773	10.53
438.129	10.49
438.485	10.49
438.841	10.48
439.198	10.46
439.554	10.42
439.91	10.41
440.266	10.38
440.622	10.35
440.978	10.32
441.334	10.29
441.69	10.27
442.046	10.25
442.402	10.2
442.758	10.14
443.113	10.11
443.469	10.08
443.825	10.06
444.181	10.05
444.536	10.05
444.892	10.03
445.247	10
445.603	10.01
445.958	10
446.314	9.99
446.669	9.98
447.025	9.99
447.38	9.98
447.735	9.98
448.09	9.97
448.446	9.97
448.801	9.97
449.156	9.98
449.511	9.98
449.866	10.01
450.221	10.05
450.576	10.07
450.931	10.09
451.286	10.1
451.641	10.11
451.995	10.1
452.35	10.13
452.705	10.13
453.06	10.12
453.414	10.13
453.769	10.13
454.123	10.11
454.478	10.1
454.832	10.08
455.187	10.04
455.541	10.01
455.896	9.93
456.25	9.89
456.604	9.83
456.958	9.78
457.313	9.76
457.667	9.74
458.021	9.71
458.375	9.7
458.729	9.71
459.083	9.7
459.437	9.7
459.791	9.68
460.145	9.7
460.499	9.71
460.852	9.69
461.206	9.68
461.56	9.68
461.914	9.69
462.267	9.69
462.621	9.69
462.974	9.7
463.328	9.74
463.681	9.76
464.035	9.79
464.388	9.83
464.742	9.83
465.095	9.83
465.448	9.85
465.801	9.85
466.155	9.84
466.508	9.84
466.861	9.84
467.214	9.84
467.567	9.82
467.92	9.8
468.273	9.78
468.626	9.78
468.979	9.76
469.332	9.73
469.684	9.72
470.037	9.73
470.39	9.74
470.743	9.73
471.095	9.74
471.448	9.77
471.8	9.79
472.153	9.8
472.505	9.81
472.858	9.81
473.21	9.81
473.562	9.8
473.915	9.78
474.267	9.77
474.619	9.76
474.971	9.75
475.324	9.74
475.676	9.76
476.028	9.74
476.38	9.76
476.732	9.77
477.084	9.75
477.436	9.74
477.787	9.72
478.139	9.69
478.491	9.66
478.843	9.6
479.195	9.57
479.546	9.5
479.898	9.44
480.249	9.38
480.601	9.32
480.952	9.27
481.304	9.24
481.655	9.23
482.007	9.2
482.358	9.18
482.709	9.16
483.061	9.13
483.412	9.12
483.763	9.1
484.114	9.08
484.465	9.06
484.816	9.05
485.167	9.03
485.518	9.02
485.869	9.01
486.22	9.01
486.571	9.02
486.922	9.02
487.272	9.03
487.623	9.03
487.974	9.04
488.324	9.05
488.675	9.05
489.025	9.06
489.376	9.08
489.726	9.09
490.077	9.11
490.427	9.13
490.778	9.14
491.128	9.17
491.478	9.2
491.828	9.24
492.179	9.27
492.529	9.32
492.879	9.36
493.229	9.4
493.579	9.41
493.929	9.39
494.279	9.42
494.629	9.44
494.979	9.45
495.328	9.49
495.678	9.54
496.028	9.59
496.378	9.62
496.727	9.67
497.077	9.7
497.426	9.73
497.776	9.73
498.125	9.75
498.475	9.77
498.824	9.78
499.174	9.81
499.523	9.81
499.872	9.81
500.221	9.83
500.571	9.85
500.92	9.87
501.269	9.89
501.618	9.92
501.967	9.92
502.316	9.92
502.665	9.93
503.014	9.96
503.363	9.98
503.711	9.98
504.06	9.97
504.409	9.97
504.758	9.97
505.106	9.98
505.455	9.99
505.803	9.99
506.152	9.97
506.5	9.95
506.849	9.95
507.197	9.94
507.546	9.93
507.894	9.94
508.242	9.96
508.59	9.96
508.939	9.95
509.287	9.97
509.635	9.99
509.983	9.98
510.331	9.97
510.679	9.98
511.027	9.98
511.375	9.99
511.723	10
512.07	10.01
512.418	10.04
512.766	10.06
513.114	10.08
513.461	10.11
513.809	10.14
514.156	10.16
514.504	10.17
514.851	10.18
515.199	10.2
515.546	10.19
515.893	10.21
516.241	10.22
516.588	10.23
516.935	10.25
517.282	10.27
517.63	10.29
517.977	10.3
518.324	10.31
518.671	10.34
519.018	10.36
519.365	10.37
519.711	10.38
520.058	10.39
520.405	10.4
520.752	10.4
521.099	10.41
521.445	10.42
521.792	10.44
522.138	10.47
522.485	10.47
522.832	10.51
523.178	10.55
523.524	10.56
523.871	10.57
524.217	10.56
524.563	10.54
524.91	10.53
525.256	10.53
525.602	10.51
525.948	10.48
526.294	10.46
526.64	10.43
526.986	10.42
527.332	10.4
527.678	10.39
528.024	10.4
528.37	10.41
528.716	10.4
529.061	10.41
529.407	10.41
529.753	10.41
530.098	10.41
530.444	10.41
530.789	10.42
531.135	10.42
531.48	10.44
531.826	10.47
532.171	10.48
532.516	10.5
532.862	10.54
533.207	10.59
533.552	10.64
533.897	10.69
534.242	10.74
534.587	10.77
534.932	10.81
535.277	10.83
535.622	10.85
535.967	10.88
536.312	10.9
536.657	10.95
537.001	11
537.346	11.04
537.691	11.07
538.035	11.1
538.38	11.12
538.724	11.13
539.069	11.13
539.413	11.13
539.758	11.14
540.102	11.16
540.446	11.17
540.791	11.18
541.135	11.2
541.479	11.2
541.823	11.22
542.167	11.22
542.512	11.23
542.856	11.24
543.2	11.26
543.543	11.27
543.887	11.27
544.231	11.3
544.575	11.33
544.919	11.37
545.262	11.4
545.606	11.44
545.95	11.48
546.293	11.53
546.637	11.59
546.98	11.64
547.324	11.67
547.667	11.72
548.011	11.76
548.354	11.8
548.697	11.84
549.04	11.89
549.384	11.94
549.727	11.99
550.07	12.05
550.413	12.1
550.756	12.16
551.099	12.22
551.442	12.26
551.785	12.3
552.128	12.36
552.47	12.42
552.813	12.45
553.156	12.48
553.499	12.55
553.841	12.59
554.184	12.62
554.526	12.66
554.869	12.67
555.211	12.72
555.554	12.75
555.896	12.81
556.238	12.85
556.581	12.91
556.923	12.96
557.265	13.02
557.607	13.08
557.949	13.11
558.291	13.14
558.633	13.17
558.975	13.23
559.317	13.26
559.659	13.33
560.001	13.4
560.343	13.47
560.685	13.51
561.026	13.57
561.368	13.63
561.71	13.67
562.051	13.78
562.393	13.87
562.734	13.93
563.076	14
563.417	14.09
563.759	14.18
564.1	14.25
564.441	14.31
564.782	14.37
565.124	14.47
565.465	14.57
565.806	14.68
566.147	14.76
566.488	14.83
566.829	14.9
567.17	14.97
567.511	15.03
567.851	15.15
568.192	15.23
568.533	15.35
568.874	15.48
569.214	15.55
569.555	15.64
569.895	15.75
570.236	15.86
570.576	15.97
570.917	16.08
571.257	16.22
571.598	16.32
571.938	16.45
572.278	16.56
572.618	16.65
572.959	16.73
573.299	16.83
573.639	16.97
573.979	17.05
574.319	17.15
574.659	17.26
574.999	17.36
575.339	17.46
575.678	17.55
576.018	17.66
576.358	17.77
576.698	17.88
577.037	18
577.377	18.12
577.716	18.22
578.056	18.32
578.395	18.4
578.735	18.53
579.074	18.62
579.413	18.75
579.753	18.89
580.092	19.04
580.431	19.21
580.77	19.34
581.109	19.48
581.448	19.65
581.787	19.78
582.126	19.89
582.465	20.03
582.804	20.18
583.143	20.31
583.482	20.44
583.82	20.56
584.159	20.7
584.498	20.8
584.836	20.98
585.175	21.12
585.514	21.26
585.852	21.43
586.19	21.63
586.529	21.75
586.867	21.9
587.205	22.03
587.544	22.17
587.882	22.28
588.22	22.4
588.558	22.47
588.896	22.62
589.234	22.72
589.572	22.82
589.91	22.93
590.248	23.09
590.586	23.23
590.924	23.36
591.262	23.47
591.599	23.63
591.937	23.76
592.275	23.87
592.612	24.02
592.95	24.13
593.287	24.3
593.625	24.45
593.962	24.58
594.299	24.7
594.637	24.81
594.974	24.92
595.311	25.05
595.648	25.18
595.985	25.25
596.322	25.36
596.659	25.45
596.996	25.52
597.333	25.56
597.67	25.65
598.007	25.72
598.344	25.8
598.681	25.86
599.017	25.89
599.354	25.99
599.691	26.08
600.027	26.18
600.364	26.25
600.7	26.36
601.037	26.47
601.373	26.58
601.71	26.65
602.046	26.75
602.382	26.8
602.718	26.88
603.054	26.98
603.391	27.04
603.727	27.09
604.063	27.18
604.399	27.22
604.735	27.27
605.071	27.33
605.406	27.42
605.742	27.48
606.078	27.55
606.414	27.63
606.749	27.69
607.085	27.71
607.421	27.77
607.756	27.8
608.092	27.83
608.427	27.84
608.762	27.89
609.098	27.92
609.433	27.92
609.768	27.94
610.104	27.91
610.439	27.96
610.774	28.02
611.109	28.04
611.444	28.08
611.779	28.1
612.114	28.09
612.449	28.07
612.784	28.09
613.118	28.11
613.453	28.11
613.788	28.09
614.123	28.1
614.457	28.07
614.792	28.04
615.126	28.03
615.461	28.05
615.795	28.03
616.13	28.04
616.464	28.11
616.798	28.1
617.132	28.16
617.467	28.2
617.801	28.16
618.135	28.18
618.469	28.2
618.803	28.22
619.137	28.28
619.471	28.31
619.805	28.31
620.139	28.32
620.472	28.28
620.806	28.3
621.14	28.3
621.473	28.35
621.807	28.45
622.141	28.51
622.474	28.55
622.808	28.59
623.141	28.64
623.474	28.66
623.808	28.73
624.141	28.73
624.474	28.69
624.807	28.75
625.141	28.79
625.474	28.83
625.807	28.87
626.14	28.88
626.473	28.95
626.806	28.98
627.138	28.96
627.471	29.01
627.804	29.06
628.137	29.1
628.469	29.08
628.802	29.05
629.135	29.03
629.467	29.02
629.8	29.02
630.132	29.01
630.465	29.04
630.797	29.05
631.129	29.06
631.461	29.16
631.794	29.19
632.126	29.13
632.458	29.14
632.79	29.09
633.122	29.11
633.454	29.1
633.786	29.11
634.118	29.16
634.45	29.15
634.781	29.07
635.113	29.08
635.445	29.07
635.777	29.06
636.108	29.1
636.44	29.13
636.771	29.16
637.103	29.18
637.434	29.09
637.765	29.15
638.097	29.17
638.428	29.12
638.759	29.08
639.09	29.14
639.422	29.12
639.753	29.1
640.084	29.07
640.415	29.03
640.746	29
641.077	28.95
641.407	28.91
641.738	28.98
642.069	28.94
642.4	28.95
642.73	28.95
643.061	28.92
643.392	28.97
643.722	28.99
644.053	28.89
644.383	28.91
644.713	28.87
645.044	28.84
645.374	28.84
645.704	28.85
646.034	28.85
646.365	28.86
646.695	28.95
647.025	29.02
647.355	29.04
647.685	29.03
648.015	29.14
