Data from pcis_p_h3_p3_Reflection_2.txt Node
Date: Wed Jul 12 17:53:17 ART 2017
User: rodoncho
Spectrometer: USB2E3644
Trigger mode: 4
Integration Time (sec): 6.000000E-2
Scans to average: 10
Electric dark correction enabled: true
Nonlinearity correction enabled: false
Boxcar width: 10
XAxis mode: Wavelengths
Number of Pixels in Spectrum: 2048
>>>>>Begin Spectral Data<<<<<
178.315	-37.37
178.696	8.33
179.076	39.01
179.457	42.42
179.838	37.14
180.218	-666.67
180.599	-18.52
180.979	100
181.36	4.76
181.74	62.96
182.121	51.35
182.501	143.8
182.881	196.39
183.262	289.19
183.642	-100
184.022	46.99
184.402	92.37
184.783	106.49
185.163	103.38
185.543	96.37
185.923	95.04
186.303	96.98
186.683	96.53
187.063	99.62
187.443	100
187.823	97.46
188.203	100.3
188.583	100.85
188.963	102.13
189.343	104.96
189.723	105.89
190.102	109.63
190.482	118.9
190.862	116.08
191.242	116.65
191.621	117.18
192.001	115.1
192.38	111.54
192.76	108.26
193.14	108.36
193.519	111.24
193.898	112.67
194.278	114.1
194.657	117.13
195.037	118.76
195.416	119.67
195.795	121.81
196.175	123.08
196.554	122.33
196.933	122.74
197.312	121.45
197.692	123.87
198.071	123.9
198.45	120.2
198.829	121.77
199.208	120.54
199.587	119.93
199.966	121.66
200.345	121.62
200.724	121.46
201.103	119.83
201.482	117.26
201.86	117.01
202.239	114.29
202.618	112.03
202.997	111.15
203.375	109.86
203.754	108.88
204.133	107.52
204.511	106.88
204.89	106.19
205.269	106.5
205.647	104.83
206.026	103.27
206.404	104.46
206.782	104.1
207.161	102.1
207.539	101.47
207.918	99.41
208.296	100
208.674	101.82
209.052	103.68
209.431	106.38
209.809	105.85
210.187	106.15
210.565	105.99
210.943	106.92
211.321	107.63
211.699	108.5
212.077	109.91
212.455	110.17
212.833	110.05
213.211	109.14
213.589	109.79
213.967	110.39
214.345	109.44
214.722	109.47
215.1	110.95
215.478	112.48
215.855	113.68
216.233	112.5
216.611	112.15
216.988	112.06
217.366	110.37
217.743	109.99
218.121	111.93
218.498	112.64
218.876	110.87
219.253	111.4
219.631	111.33
220.008	111.46
220.385	112.59
220.762	111.7
221.14	111.85
221.517	112.95
221.894	114.7
222.271	116.06
222.648	116.22
223.025	115.78
223.402	114.83
223.78	113.87
224.157	113.88
224.533	112.24
224.91	111.39
225.287	112.17
225.664	113.64
226.041	114.66
226.418	115.15
226.795	116.06
227.171	115.66
227.548	115.61
227.925	116.24
228.301	116.49
228.678	117.62
229.055	119.71
229.431	119.78
229.808	118.07
230.184	117.16
230.561	117.63
230.937	118.14
231.313	118.93
231.69	120.12
232.066	119.88
232.442	120.61
232.819	119.95
233.195	119.86
233.571	120.06
233.947	119.18
234.323	118.56
234.699	118.77
235.075	118.76
235.451	118.2
235.827	117.44
236.203	117.37
236.579	118.93
236.955	119.08
237.331	120.93
237.707	124.8
238.083	129.67
238.459	133.37
238.834	140.16
239.21	146.34
239.586	149.45
239.961	155.72
240.337	161.43
240.713	169.04
241.088	172.7
241.464	177.47
241.839	184.83
242.215	196.41
242.59	212.38
242.965	250.04
243.341	334.35
243.716	502.95
244.091	877.43
244.467	1877.14
244.842	24823.08
245.217	-2809.73
245.592	-1888.02
245.967	-1679.68
246.343	-1793.71
246.718	-2736.52
247.093	-3338.71
247.468	-2600.84
247.843	-2082.55
248.218	-1476.3
248.593	-898.27
248.967	-629.53
249.342	-574.95
249.717	-574.03
250.092	-597.88
250.467	-665.46
250.841	-913.49
251.216	-3865.43
251.591	1771.19
251.965	807.38
252.34	586.75
252.714	498.16
253.089	421.24
253.463	409.59
253.838	412.77
254.212	440.19
254.587	503.97
254.961	627.03
255.335	1013.15
255.71	-29827.27
256.084	-666.46
256.458	-336.71
256.832	-225.78
257.206	-184.38
257.581	-162.85
257.955	-150.77
258.329	-141.87
258.703	-133.8
259.077	-125.71
259.451	-120.81
259.825	-116.69
260.199	-112.39
260.572	-109.86
260.946	-105.09
261.32	-103.63
261.694	-100.81
262.068	-98.14
262.441	-96.02
262.815	-94.29
263.189	-94.71
263.562	-98.52
263.936	-112.19
264.309	-133.74
264.683	-160.73
265.056	-178.83
265.43	-190.08
265.803	-188.53
266.176	-181.73
266.55	-182.26
266.923	-180.12
267.296	-171.6
267.67	-159.4
268.043	-146.89
268.416	-133.35
268.789	-120.76
269.162	-107.38
269.535	-99.86
269.908	-93.98
270.281	-91.13
270.654	-90.85
271.027	-93.39
271.4	-95.84
271.773	-96.41
272.146	-95.41
272.519	-92
272.891	-88.33
273.264	-86.88
273.637	-85.5
274.01	-86.15
274.382	-85.3
274.755	-83.54
275.127	-83.08
275.5	-83.67
275.872	-83.42
276.245	-83.67
276.617	-85.65
276.99	-90.25
277.362	-91.77
277.734	-92.44
278.107	-90.61
278.479	-87.51
278.851	-83.95
279.223	-81.13
279.596	-78.01
279.968	-76.77
280.34	-77.07
280.712	-75.89
281.084	-71.7
281.456	-66.86
281.828	-62.4
282.2	-57.98
282.572	-54.6
282.944	-52.16
283.315	-50.5
283.687	-49.41
284.059	-48.67
284.431	-47.73
284.802	-46.8
285.174	-45.8
285.546	-44.54
285.917	-44.26
286.289	-43.05
286.66	-41.61
287.032	-40.58
287.403	-40.43
287.775	-40.51
288.146	-40.37
288.518	-40.24
288.889	-40.41
289.26	-41.45
289.632	-42.21
290.003	-43.69
290.374	-44.85
290.745	-45.23
291.116	-44.8
291.487	-43.65
291.858	-42.84
292.229	-42.35
292.6	-41.17
292.971	-40.21
293.342	-38.14
293.713	-35.87
294.084	-34.87
294.455	-34.51
294.826	-34.33
295.196	-34.34
295.567	-33.82
295.938	-32.7
296.308	-32.13
296.679	-30.98
297.05	-29.8
297.42	-29.53
297.791	-28.4
298.161	-27.48
298.532	-26.95
298.902	-26.75
299.272	-26.62
299.643	-26.3
300.013	-26.08
300.383	-25.59
300.754	-25.19
301.124	-25.65
301.494	-25.7
301.864	-25.3
302.234	-25.5
302.604	-25.6
302.974	-25.2
303.344	-25.02
303.714	-25.32
304.084	-24.74
304.454	-24.88
304.824	-24.54
305.194	-23.33
305.563	-22.85
305.933	-21.94
306.303	-20.37
306.673	-19.44
307.042	-18.58
307.412	-17.56
307.781	-16.48
308.151	-15.93
308.521	-15.64
308.89	-15.47
309.259	-15.35
309.629	-15.6
309.998	-15.3
310.368	-14.98
310.737	-14.47
311.106	-13.96
311.475	-13.25
311.845	-13.2
312.214	-13.13
312.583	-13.01
312.952	-12.74
313.321	-12.63
313.69	-12.8
314.059	-13.5
314.428	-13.87
314.797	-14.47
315.166	-15.43
315.535	-16.02
315.904	-16.17
316.272	-16.13
316.641	-16.06
317.01	-16.12
317.379	-15.8
317.747	-15.57
318.116	-15.26
318.484	-14.97
318.853	-14.71
319.221	-14.54
319.59	-14.14
319.958	-13.79
320.327	-13.47
320.695	-13.21
321.063	-12.85
321.432	-12.31
321.8	-11.92
322.168	-11.02
322.536	-10.14
322.905	-9.08
323.273	-8.46
323.641	-8.24
324.009	-8.29
324.377	-7.92
324.745	-7.5
325.113	-7.24
325.481	-6.77
325.849	-6.21
326.216	-5.87
326.584	-5.21
326.952	-4.91
327.32	-4.6
327.687	-4.17
328.055	-3.87
328.423	-3.81
328.79	-3.57
329.158	-3.45
329.525	-2.93
329.893	-2.85
330.26	-2.61
330.628	-2.74
330.995	-2.42
331.362	-1.91
331.73	-1.31
332.097	-0.94
332.464	-0.6
332.831	-0.16
333.199	0.04
333.566	0.2
333.933	0.18
334.3	-0.03
334.667	0.25
335.034	0.5
335.401	0.6
335.768	0.73
336.135	1.09
336.502	1.36
336.868	1.72
337.235	1.96
337.602	2.28
337.969	2.51
338.335	2.88
338.702	3
339.069	3.14
339.435	3.24
339.802	3.22
340.168	3.36
340.535	3.39
340.901	3.51
341.267	3.75
341.634	4.17
342	4.53
342.366	4.56
342.733	4.74
343.099	4.93
343.465	5.06
343.831	5.24
344.197	5.31
344.563	5.35
344.929	5.42
345.295	5.61
345.661	5.77
346.027	5.97
346.393	6.2
346.759	6.28
347.125	6.41
347.491	6.57
347.856	6.67
348.222	6.75
348.588	6.91
348.953	6.81
349.319	6.8
349.684	6.78
350.05	6.95
350.415	7.08
350.781	7.17
351.146	7.37
351.512	7.32
351.877	7.46
352.242	7.59
352.608	7.7
352.973	7.71
353.338	7.7
353.703	7.68
354.068	7.68
354.433	7.89
354.798	8
355.164	8.15
355.528	8.19
355.893	8.36
356.258	8.54
356.623	8.76
356.988	8.9
357.353	9.14
357.718	9.19
358.082	9.28
358.447	9.32
358.812	9.39
359.176	9.52
359.541	9.53
359.905	9.68
360.27	9.81
360.634	9.91
360.999	9.96
361.363	10.11
361.728	10.22
362.092	10.19
362.456	10.24
362.821	10.3
363.185	10.44
363.549	10.53
363.913	10.52
364.277	10.57
364.641	10.65
365.005	10.72
365.369	10.87
365.733	10.89
366.097	11.08
366.461	11.12
366.825	11.22
367.189	11.38
367.553	11.42
367.916	11.51
368.28	11.59
368.644	11.72
369.007	11.87
369.371	11.97
369.734	12.06
370.098	12.13
370.461	12.29
370.825	12.36
371.188	12.47
371.552	12.57
371.915	12.63
372.278	12.7
372.642	12.83
373.005	12.87
373.368	12.99
373.731	13.04
374.094	13.15
374.457	13.21
374.82	13.23
375.183	13.29
375.546	13.3
375.909	13.37
376.272	13.4
376.635	13.41
376.998	13.4
377.361	13.44
377.723	13.5
378.086	13.51
378.449	13.55
378.811	13.59
379.174	13.65
379.537	13.74
379.899	13.76
380.262	13.78
380.624	13.8
380.987	13.84
381.349	13.9
381.711	13.9
382.074	13.92
382.436	13.98
382.798	13.98
383.16	13.97
383.522	13.98
383.884	14.03
384.247	14.05
384.609	14.12
384.971	14.17
385.333	14.2
385.695	14.24
386.056	14.2
386.418	14.14
386.78	14.16
387.142	14.15
387.504	14.14
387.865	14.1
388.227	14.08
388.589	14.07
388.95	14.04
389.312	14.02
389.673	13.98
390.035	13.97
390.396	13.95
390.758	13.92
391.119	13.9
391.48	13.87
391.842	13.83
392.203	13.76
392.564	13.73
392.925	13.68
393.286	13.62
393.648	13.59
394.009	13.61
394.37	13.51
394.731	13.47
395.092	13.43
395.452	13.37
395.813	13.35
396.174	13.29
396.535	13.23
396.896	13.19
397.257	13.17
397.617	13.11
397.978	13.07
398.338	13.11
398.699	13.04
399.06	12.98
399.42	12.9
399.781	12.88
400.141	12.8
400.501	12.79
400.862	12.77
401.222	12.76
401.582	12.69
401.943	12.71
402.303	12.66
402.663	12.63
403.023	12.61
403.383	12.58
403.743	12.55
404.103	12.56
404.463	12.56
404.823	12.57
405.183	12.53
405.543	12.53
405.903	12.46
406.262	12.47
406.622	12.46
406.982	12.49
407.342	12.5
407.701	12.52
408.061	12.48
408.42	12.45
408.78	12.42
409.139	12.42
409.499	12.41
409.858	12.46
410.217	12.45
410.577	12.44
410.936	12.43
411.295	12.41
411.655	12.36
412.014	12.33
412.373	12.28
412.732	12.25
413.091	12.19
413.45	12.12
413.809	12.07
414.168	12
414.527	11.92
414.886	11.8
415.245	11.71
415.603	11.63
415.962	11.51
416.321	11.39
416.679	11.29
417.038	11.18
417.397	11.05
417.755	10.94
418.114	10.83
418.472	10.74
418.831	10.66
419.189	10.59
419.547	10.52
419.906	10.43
420.264	10.35
420.622	10.27
420.981	10.2
421.339	10.12
421.697	10.06
422.055	9.99
422.413	9.95
422.771	9.91
423.129	9.86
423.487	9.85
423.845	9.84
424.203	9.83
424.56	9.8
424.918	9.78
425.276	9.81
425.634	9.83
425.991	9.83
426.349	9.84
426.707	9.83
427.064	9.82
427.422	9.83
427.779	9.86
428.137	9.88
428.494	9.97
428.851	10.01
429.209	10.04
429.566	10.1
429.923	10.11
430.28	10.14
430.637	10.15
430.995	10.17
431.352	10.17
431.709	10.18
432.066	10.21
432.423	10.24
432.78	10.23
433.137	10.24
433.493	10.25
433.85	10.27
434.207	10.28
434.564	10.29
434.92	10.3
435.277	10.31
435.634	10.35
435.99	10.32
436.347	10.34
436.703	10.34
437.06	10.33
437.416	10.37
437.773	10.37
438.129	10.36
438.485	10.37
438.841	10.36
439.198	10.36
439.554	10.36
439.91	10.36
440.266	10.34
440.622	10.33
440.978	10.3
441.334	10.26
441.69	10.22
442.046	10.17
442.402	10.12
442.758	10.05
443.113	9.97
443.469	9.91
443.825	9.83
444.181	9.78
444.536	9.73
444.892	9.66
445.247	9.61
445.603	9.57
445.958	9.52
446.314	9.47
446.669	9.43
447.025	9.38
447.38	9.33
447.735	9.28
448.09	9.24
448.446	9.2
448.801	9.16
449.156	9.12
449.511	9.1
449.866	9.08
450.221	9.07
450.576	9.06
450.931	9.06
451.286	9.05
451.641	9.04
451.995	9.03
452.35	9.04
452.705	9.06
453.06	9.07
453.414	9.12
453.769	9.12
454.123	9.13
454.478	9.14
454.832	9.16
455.187	9.18
455.541	9.19
455.896	9.2
456.25	9.21
456.604	9.24
456.958	9.24
457.313	9.26
457.667	9.28
458.021	9.33
458.375	9.37
458.729	9.44
459.083	9.49
459.437	9.55
459.791	9.59
460.145	9.66
460.499	9.71
460.852	9.75
461.206	9.8
461.56	9.88
461.914	9.94
462.267	10.02
462.621	10.11
462.974	10.24
463.328	10.39
463.681	10.54
464.035	10.71
464.388	10.88
464.742	11.01
465.095	11.15
465.448	11.29
465.801	11.4
466.155	11.52
466.508	11.64
466.861	11.72
467.214	11.82
467.567	11.9
467.92	11.99
468.273	12.07
468.626	12.18
468.979	12.25
469.332	12.3
469.684	12.37
470.037	12.43
470.39	12.46
470.743	12.49
471.095	12.54
471.448	12.57
471.8	12.61
472.153	12.64
472.505	12.66
472.858	12.64
473.21	12.6
473.562	12.53
473.915	12.48
474.267	12.44
474.619	12.37
474.971	12.3
475.324	12.23
475.676	12.14
476.028	12.03
476.38	11.94
476.732	11.85
477.084	11.74
477.436	11.62
477.787	11.5
478.139	11.4
478.491	11.27
478.843	11.12
479.195	10.94
479.546	10.74
479.898	10.52
480.249	10.32
480.601	10.17
480.952	10.04
481.304	9.93
481.655	9.87
482.007	9.81
482.358	9.76
482.709	9.72
483.061	9.69
483.412	9.66
483.763	9.64
484.114	9.63
484.465	9.62
484.816	9.61
485.167	9.61
485.518	9.6
485.869	9.62
486.22	9.63
486.571	9.67
486.922	9.71
487.272	9.77
487.623	9.86
487.974	9.98
488.324	10.11
488.675	10.24
489.025	10.35
489.376	10.46
489.726	10.56
490.077	10.67
490.427	10.78
490.778	10.93
491.128	11.08
491.478	11.25
491.828	11.46
492.179	11.69
492.529	11.91
492.879	12.15
493.229	12.38
493.579	12.6
493.929	12.81
494.279	13.03
494.629	13.27
494.979	13.56
495.328	13.9
495.678	14.26
496.028	14.64
496.378	14.99
496.727	15.31
497.077	15.64
497.426	15.97
497.776	16.24
498.125	16.5
498.475	16.76
498.824	17
499.174	17.25
499.523	17.5
499.872	17.78
500.221	18.04
500.571	18.32
500.92	18.61
501.269	18.92
501.618	19.2
501.967	19.47
502.316	19.72
502.665	19.97
503.014	20.24
503.363	20.49
503.711	20.74
504.06	20.97
504.409	21.18
504.758	21.4
505.106	21.57
505.455	21.76
505.803	21.94
506.152	22.11
506.5	22.26
506.849	22.41
507.197	22.55
507.546	22.7
507.894	22.82
508.242	22.94
508.59	23.04
508.939	23.16
509.287	23.26
509.635	23.37
509.983	23.45
510.331	23.54
510.679	23.61
511.027	23.68
511.375	23.77
511.723	23.84
512.07	23.88
512.418	23.99
512.766	24.09
513.114	24.19
513.461	24.25
513.809	24.34
514.156	24.41
514.504	24.49
514.851	24.57
515.199	24.65
515.546	24.72
515.893	24.78
516.241	24.8
516.588	24.87
516.935	24.91
517.282	24.97
517.63	24.99
517.977	25.04
518.324	25.07
518.671	25.11
519.018	25.16
519.365	25.21
519.711	25.25
520.058	25.26
520.405	25.27
520.752	25.32
521.099	25.35
521.445	25.35
521.792	25.38
522.138	25.4
522.485	25.43
522.832	25.48
523.178	25.53
523.524	25.59
523.871	25.6
524.217	25.6
524.563	25.62
524.91	25.63
525.256	25.65
525.602	25.67
525.948	25.67
526.294	25.66
526.64	25.65
526.986	25.65
527.332	25.66
527.678	25.67
528.024	25.68
528.37	25.69
528.716	25.7
529.061	25.72
529.407	25.74
529.753	25.75
530.098	25.76
530.444	25.76
530.789	25.78
531.135	25.81
531.48	25.83
531.826	25.85
532.171	25.89
532.516	25.91
532.862	25.94
533.207	25.99
533.552	26.03
533.897	26.05
534.242	26.09
534.587	26.1
534.932	26.12
535.277	26.15
535.622	26.16
535.967	26.17
536.312	26.2
536.657	26.21
537.001	26.22
537.346	26.25
537.691	26.27
538.035	26.27
538.38	26.27
538.724	26.26
539.069	26.26
539.413	26.26
539.758	26.26
540.102	26.27
540.446	26.27
540.791	26.27
541.135	26.3
541.479	26.3
541.823	26.3
542.167	26.3
542.512	26.29
542.856	26.29
543.2	26.29
543.543	26.26
543.887	26.26
544.231	26.26
544.575	26.24
544.919	26.24
545.262	26.21
545.606	26.2
545.95	26.2
546.293	26.22
546.637	26.19
546.98	26.19
547.324	26.16
547.667	26.14
548.011	26.1
548.354	26.07
548.697	26.07
549.04	26.05
549.384	26.02
549.727	25.99
550.07	25.95
550.413	25.92
550.756	25.9
551.099	25.87
551.442	25.86
551.785	25.82
552.128	25.8
552.47	25.81
552.813	25.8
553.156	25.76
553.499	25.7
553.841	25.69
554.184	25.66
554.526	25.61
554.869	25.57
555.211	25.54
555.554	25.5
555.896	25.44
556.238	25.38
556.581	25.35
556.923	25.29
557.265	25.28
557.607	25.26
557.949	25.2
558.291	25.17
558.633	25.1
558.975	25.06
559.317	25.02
559.659	24.97
560.001	24.92
560.343	24.89
560.685	24.85
561.026	24.82
561.368	24.75
561.71	24.72
562.051	24.67
562.393	24.67
562.734	24.63
563.076	24.6
563.417	24.57
563.759	24.54
564.1	24.5
564.441	24.46
564.782	24.41
565.124	24.36
565.465	24.33
565.806	24.32
566.147	24.29
566.488	24.25
566.829	24.21
567.17	24.17
567.511	24.12
567.851	24.08
568.192	24.04
568.533	24.02
568.874	23.98
569.214	23.92
569.555	23.84
569.895	23.78
570.236	23.73
570.576	23.67
570.917	23.59
571.257	23.54
571.598	23.49
571.938	23.46
572.278	23.42
572.618	23.36
572.959	23.29
573.299	23.22
573.639	23.14
573.979	23.1
574.319	23.07
574.659	23.02
574.999	22.94
575.339	22.86
575.678	22.76
576.018	22.68
576.358	22.65
576.698	22.58
577.037	22.52
577.377	22.47
577.716	22.38
578.056	22.36
578.395	22.3
578.735	22.22
579.074	22.11
579.413	22.01
579.753	21.92
580.092	21.89
580.431	21.82
580.77	21.77
581.109	21.69
581.448	21.57
581.787	21.48
582.126	21.4
582.465	21.34
582.804	21.29
583.143	21.2
583.482	21.08
583.82	21.01
584.159	20.92
584.498	20.82
584.836	20.76
585.175	20.69
585.514	20.62
585.852	20.57
586.19	20.51
586.529	20.47
586.867	20.41
587.205	20.3
587.544	20.28
587.882	20.18
588.22	20.11
588.558	20.05
588.896	20.02
589.234	19.94
589.572	19.88
589.91	19.82
590.248	19.79
590.586	19.77
590.924	19.72
591.262	19.67
591.599	19.65
591.937	19.62
592.275	19.51
592.612	19.46
592.95	19.38
593.287	19.35
593.625	19.31
593.962	19.28
594.299	19.25
594.637	19.19
594.974	19.16
595.311	19.12
595.648	19.08
595.985	19.03
596.322	19
596.659	18.97
596.996	18.92
597.333	18.83
597.67	18.77
598.007	18.72
598.344	18.66
598.681	18.57
599.017	18.48
599.354	18.46
599.691	18.39
600.027	18.3
600.364	18.19
600.7	18.13
601.037	18.06
601.373	17.99
601.71	17.98
602.046	17.94
602.382	17.93
602.718	17.88
603.054	17.82
603.391	17.75
603.727	17.7
604.063	17.66
604.399	17.63
604.735	17.61
605.071	17.59
605.406	17.55
605.742	17.51
606.078	17.5
606.414	17.46
606.749	17.43
607.085	17.39
607.421	17.37
607.756	17.28
608.092	17.17
608.427	17.07
608.762	16.96
609.098	16.85
609.433	16.74
609.768	16.66
610.104	16.61
610.439	16.56
610.774	16.5
611.109	16.43
611.444	16.36
611.779	16.26
612.114	16.18
612.449	16.11
612.784	16.04
613.118	15.93
613.453	15.84
613.788	15.75
614.123	15.67
614.457	15.58
614.792	15.53
615.126	15.5
615.461	15.42
615.795	15.35
616.13	15.31
616.464	15.26
616.798	15.2
617.132	15.15
617.467	15.12
617.801	15.04
618.135	15.04
618.469	14.99
618.803	14.96
619.137	14.93
619.471	14.87
619.805	14.83
620.139	14.77
620.472	14.72
620.806	14.64
621.14	14.6
621.473	14.57
621.807	14.49
622.141	14.45
622.474	14.4
622.808	14.34
623.141	14.3
623.474	14.2
623.808	14.2
624.141	14.16
624.474	14.15
624.807	14.18
625.141	14.11
625.474	14.08
625.807	14.06
626.14	14
626.473	13.97
626.806	13.94
627.138	13.94
627.471	13.88
627.804	13.86
628.137	13.84
628.469	13.75
628.802	13.72
629.135	13.67
629.467	13.64
629.8	13.6
630.132	13.61
630.465	13.6
630.797	13.56
631.129	13.53
631.461	13.47
631.794	13.39
632.126	13.33
632.458	13.33
632.79	13.29
633.122	13.25
633.454	13.22
633.786	13.17
634.118	13.12
634.45	13.05
634.781	13.01
635.113	12.93
635.445	12.92
635.777	12.87
636.108	12.84
636.44	12.81
636.771	12.76
637.103	12.62
637.434	12.57
637.765	12.54
638.097	12.47
638.428	12.39
638.759	12.35
639.09	12.32
639.422	12.25
639.753	12.18
640.084	12.14
640.415	12.12
640.746	12.08
641.077	12
641.407	12.02
641.738	11.97
642.069	11.94
642.4	11.92
642.73	11.92
643.061	11.86
643.392	11.88
643.722	11.89
644.053	11.86
644.383	11.84
644.713	11.74
645.044	11.73
645.374	11.7
645.704	11.66
646.034	11.65
646.365	11.63
