Data from pcis_p_m4_p6_Reflection_5.txt Node
Date: Wed Jul 12 18:01:19 ART 2017
User: rodoncho
Spectrometer: USB2E3644
Trigger mode: 4
Integration Time (sec): 6.000000E-2
Scans to average: 10
Electric dark correction enabled: true
Nonlinearity correction enabled: false
Boxcar width: 10
XAxis mode: Wavelengths
Number of Pixels in Spectrum: 2048
>>>>>Begin Spectral Data<<<<<
178.315	226.84
178.696	101.43
179.076	61.28
179.457	33.78
179.838	10.18
180.218	-11.7
180.599	-62.26
180.979	0
181.36	-257.5
181.74	28.57
182.121	84.29
182.501	99.83
182.881	106.87
183.262	97.48
183.642	47.66
184.022	-218.42
184.402	218.75
184.783	180.6
185.163	183.53
185.543	147.76
185.923	122.33
186.303	113.96
186.683	108.35
187.063	97.34
187.443	90.89
187.823	87.92
188.203	89.17
188.583	87.18
188.963	96.73
189.343	103.65
189.723	104.31
190.102	109.09
190.482	108.14
190.862	110.83
191.242	112.13
191.621	115
192.001	115.34
192.38	115.1
192.76	111.05
193.14	106.87
193.519	105.02
193.898	106.2
194.278	104.65
194.657	105.28
195.037	108.9
195.416	110.35
195.795	111.56
196.175	111.69
196.554	116.02
196.933	115.67
197.312	112.18
197.692	109.91
198.071	108.82
198.45	108.66
198.829	107.37
199.208	106.89
199.587	103.71
199.966	104.41
200.345	104.43
200.724	103.61
201.103	103.29
201.482	103.18
201.86	102.31
202.239	101.43
202.618	100.02
202.997	99.37
203.375	99.83
203.754	98.85
204.133	98.68
204.511	96.2
204.89	95.46
205.269	96.12
205.647	96.39
206.026	95.26
206.404	95.77
206.782	96.48
207.161	97.73
207.539	101.71
207.918	101.78
208.296	101.58
208.674	102.93
209.052	105.18
209.431	106.24
209.809	105.77
210.187	106.98
210.565	107.27
210.943	107.09
211.321	107.49
211.699	109.52
212.077	110.35
212.455	112.79
212.833	114.15
213.211	113.39
213.589	113.46
213.967	114.23
214.345	113.24
214.722	113.7
215.1	112.67
215.478	110.42
215.855	108.91
216.233	108.9
216.611	110.04
216.988	109.6
217.366	109.57
217.743	110.17
218.121	110.49
218.498	110.66
218.876	111.25
219.253	111.6
219.631	110.45
220.008	109.74
220.385	107.67
220.762	106.38
221.14	107.37
221.517	108.18
221.894	108.24
222.271	110.26
222.648	111.39
223.025	112.72
223.402	113.28
223.78	114.75
224.157	114.51
224.533	112.67
224.91	112.67
225.287	113.24
225.664	114.21
226.041	114.43
226.418	114.22
226.795	113.11
227.171	112.3
227.548	112.61
227.925	113.91
228.301	116.23
228.678	117.37
229.055	116.8
229.431	116.55
229.808	115.63
230.184	113.94
230.561	112.32
230.937	112.1
231.313	112.65
231.69	113.33
232.066	114.08
232.442	113.96
232.819	113.52
233.195	113.6
233.571	112.5
233.947	113.69
234.323	115.86
234.699	116.57
235.075	115.21
235.451	115.62
235.827	115.71
236.203	115.19
236.579	116.11
236.955	118.65
237.331	120.49
237.707	123.06
238.083	126.94
238.459	131.5
238.834	138.24
239.21	143.1
239.586	146.91
239.961	151.97
240.337	156.71
240.713	161.27
241.088	161.68
241.464	165.11
241.839	169.56
242.215	173.56
242.59	187.01
242.965	217.97
243.341	275.55
243.716	367.82
244.091	556.69
244.467	861.25
244.842	1434.51
245.217	3314.64
245.592	8334.82
245.967	-65907.14
246.343	-46045
246.718	6502.11
247.093	8227.68
247.468	92450
247.843	-10770.93
248.218	-2256.34
248.593	-1146.28
248.967	-724.84
249.342	-588.07
249.717	-563.49
250.092	-559.99
250.467	-605.05
250.841	-865.14
251.216	-3507.14
251.591	2150.69
251.965	816.35
252.34	585.42
252.714	522.89
253.089	469.01
253.463	459.48
253.838	480.36
254.212	499.85
254.587	579.78
254.961	785.38
255.335	1631.27
255.71	-2513.21
256.084	-554.51
256.458	-296.02
256.832	-215.44
257.206	-182.17
257.581	-166.12
257.955	-155.95
258.329	-145.81
258.703	-135.77
259.077	-128.08
259.451	-123.56
259.825	-118.68
260.199	-115.8
260.572	-112.18
260.946	-107.7
261.32	-104.42
261.694	-101.28
262.068	-99.83
262.441	-97.49
262.815	-97.42
263.189	-99.08
263.562	-106.32
263.936	-121.9
264.309	-147.79
264.683	-173.95
265.056	-191.47
265.43	-199.25
265.803	-193.62
266.176	-189.91
266.55	-188.13
266.923	-182.04
267.296	-170.01
267.67	-156.65
268.043	-142.54
268.416	-132.61
268.789	-119.39
269.162	-106.97
269.535	-99.97
269.908	-93.07
270.281	-89.64
270.654	-88.96
271.027	-91.15
271.4	-91.53
271.773	-91.26
272.146	-90.46
272.519	-87.61
272.891	-85.22
273.264	-84.34
273.637	-84.52
274.01	-84.92
274.382	-84.43
274.755	-82.54
275.127	-83.66
275.5	-85.99
275.872	-86.08
276.245	-85.87
276.617	-88.01
276.99	-93.42
277.362	-96.11
277.734	-98.71
278.107	-98.06
278.479	-93.67
278.851	-87.46
279.223	-83.34
279.596	-81.54
279.968	-80.1
280.34	-80.09
280.712	-78.64
281.084	-73.46
281.456	-67.5
281.828	-62.33
282.2	-57.48
282.572	-54.65
282.944	-52.16
283.315	-50.18
283.687	-49.49
284.059	-48.99
284.431	-48.31
284.802	-47.04
285.174	-45.4
285.546	-43.55
285.917	-42.5
286.289	-41.64
286.66	-40.97
287.032	-40.99
287.403	-40.51
287.775	-39.81
288.146	-39.37
288.518	-38.71
288.889	-39.25
289.26	-40.59
289.632	-41.56
290.003	-43.2
290.374	-44.58
290.745	-44.68
291.116	-44.77
291.487	-43.77
291.858	-42.64
292.229	-42.05
292.6	-40.74
292.971	-39.56
293.342	-38.02
293.713	-36.33
294.084	-35.19
294.455	-34.79
294.826	-33.44
295.196	-32.9
295.567	-32.42
295.938	-31.93
296.308	-32.12
296.679	-31.2
297.05	-30.21
297.42	-29.69
297.791	-28.53
298.161	-27.62
298.532	-27.16
298.902	-26.21
299.272	-25.72
299.643	-25.01
300.013	-24.23
300.383	-23.68
300.754	-23.59
301.124	-23.87
301.494	-23.88
301.864	-24.15
302.234	-24.23
302.604	-24.61
302.974	-24.43
303.344	-24.48
303.714	-24.49
304.084	-23.94
304.454	-23.59
304.824	-23.08
305.194	-22.18
305.563	-21.43
305.933	-20.52
306.303	-19.29
306.673	-18.87
307.042	-18.1
307.412	-17.65
307.781	-16.54
308.151	-15.83
308.521	-15.3
308.89	-14.79
309.259	-14.56
309.629	-14.12
309.998	-13.69
310.368	-13.55
310.737	-13.58
311.106	-13.28
311.475	-12.56
311.845	-12.28
312.214	-12.21
312.583	-12.05
312.952	-11.98
313.321	-12.13
313.69	-12.11
314.059	-12.55
314.428	-12.51
314.797	-13.07
315.166	-13.52
315.535	-14.68
315.904	-15.39
316.272	-15.89
316.641	-16.27
317.01	-16.5
317.379	-16.75
317.747	-16.87
318.116	-16.53
318.484	-16.09
318.853	-15.85
319.221	-15.88
319.59	-15.61
319.958	-15.17
320.327	-14.71
320.695	-14.51
321.063	-14.11
321.432	-13.74
321.8	-13.4
322.168	-12.9
322.536	-12.06
322.905	-11.19
323.273	-10.29
323.641	-9.8
324.009	-9.8
324.377	-9.41
324.745	-8.98
325.113	-8.58
325.481	-7.89
325.849	-7.25
326.216	-6.68
326.584	-6.01
326.952	-5.62
327.32	-5.14
327.687	-4.9
328.055	-4.63
328.423	-4.31
328.79	-4.3
329.158	-4.23
329.525	-3.76
329.893	-3.53
330.26	-3.45
330.628	-3.52
330.995	-3.23
331.362	-2.71
331.73	-1.93
332.097	-1.56
332.464	-1.32
332.831	-1.18
333.199	-0.94
333.566	-0.94
333.933	-0.98
334.3	-1.14
334.667	-0.91
335.034	-0.81
335.401	-0.57
335.768	-0.52
336.135	-0.2
336.502	0.29
336.868	0.68
337.235	0.92
337.602	1.33
337.969	1.81
338.335	2.32
338.702	2.56
339.069	2.74
339.435	3.05
339.802	3.33
340.168	3.67
340.535	4.11
340.901	4.15
341.267	4.45
341.634	4.83
342	5.08
342.366	5.28
342.733	5.42
343.099	5.59
343.465	5.84
343.831	6.03
344.197	6.16
344.563	6.28
344.929	6.38
345.295	6.43
345.661	6.47
346.027	6.49
346.393	6.51
346.759	6.46
347.125	6.45
347.491	6.52
347.856	6.55
348.222	6.5
348.588	6.64
348.953	6.66
349.319	6.65
349.684	6.77
350.05	6.85
350.415	7.06
350.781	7.2
351.146	7.48
351.512	7.54
351.877	7.64
352.242	7.73
352.608	7.79
352.973	7.87
353.338	7.98
353.703	8.15
354.068	8.28
354.433	8.48
354.798	8.75
355.164	8.83
355.528	8.89
355.893	9.02
356.258	9.15
356.623	9.29
356.988	9.46
357.353	9.68
357.718	9.83
358.082	9.92
358.447	10.02
358.812	9.96
359.176	10.02
359.541	10.06
359.905	10.18
360.27	10.29
360.634	10.38
360.999	10.43
361.363	10.52
361.728	10.64
362.092	10.66
362.456	10.58
362.821	10.67
363.185	10.73
363.549	10.87
363.913	10.95
364.277	10.99
364.641	11.07
365.005	11.05
365.369	11.07
365.733	11.15
366.097	11.23
366.461	11.25
366.825	11.4
367.189	11.56
367.553	11.67
367.916	11.81
368.28	11.91
368.644	12.08
369.007	12.18
369.371	12.25
369.734	12.33
370.098	12.51
370.461	12.63
370.825	12.81
371.188	12.94
371.552	13.11
371.915	13.21
372.278	13.31
372.642	13.48
373.005	13.56
373.368	13.68
373.731	13.74
374.094	13.87
374.457	13.87
374.82	13.93
375.183	13.97
375.546	14.02
375.909	14.05
376.272	14.06
376.635	14.07
376.998	14.13
377.361	14.23
377.723	14.27
378.086	14.29
378.449	14.32
378.811	14.36
379.174	14.33
379.537	14.41
379.899	14.51
380.262	14.55
380.624	14.6
380.987	14.61
381.349	14.68
381.711	14.73
382.074	14.78
382.436	14.83
382.798	14.83
383.16	14.84
383.522	14.87
383.884	14.93
384.247	15.04
384.609	15.07
384.971	15.08
385.333	15.08
385.695	15.1
386.056	15.15
386.418	15.14
386.78	15.19
387.142	15.17
387.504	15.13
387.865	15.12
388.227	15.15
388.589	15.22
388.95	15.19
389.312	15.13
389.673	15.14
390.035	15.06
390.396	15.09
390.758	15.09
391.119	15.11
391.48	15.09
391.842	15.04
392.203	15.06
392.564	15.05
392.925	15.08
393.286	15.11
393.648	15.08
394.009	15.06
394.37	15.03
394.731	15.06
395.092	15.08
395.452	15.05
395.813	15.04
396.174	15
396.535	15.05
396.896	15.09
397.257	15.1
397.617	15.16
397.978	15.15
398.338	15.16
398.699	15.15
399.06	15.15
399.42	15.13
399.781	15.1
400.141	15.08
400.501	15.02
400.862	15.02
401.222	15.04
401.582	15.04
401.943	15.07
402.303	15.06
402.663	15.03
403.023	15.06
403.383	15.06
403.743	15.05
404.103	15.02
404.463	15.02
404.823	15
405.183	15
405.543	15.01
405.903	15.02
406.262	15
406.622	14.99
406.982	14.97
407.342	14.95
407.701	14.95
408.061	14.94
408.42	14.88
408.78	14.83
409.139	14.8
409.499	14.72
409.858	14.68
410.217	14.68
410.577	14.65
410.936	14.62
411.295	14.57
411.655	14.55
412.014	14.51
412.373	14.46
412.732	14.36
413.091	14.26
413.45	14.18
413.809	14.14
414.168	14.06
414.527	14
414.886	13.89
415.245	13.8
415.603	13.73
415.962	13.62
416.321	13.55
416.679	13.47
417.038	13.4
417.397	13.28
417.755	13.17
418.114	13.09
418.472	12.99
418.831	12.93
419.189	12.87
419.547	12.79
419.906	12.72
420.264	12.66
420.622	12.62
420.981	12.56
421.339	12.5
421.697	12.45
422.055	12.4
422.413	12.38
422.771	12.35
423.129	12.32
423.487	12.31
423.845	12.28
424.203	12.24
424.56	12.23
424.918	12.23
425.276	12.22
425.634	12.21
425.991	12.22
426.349	12.22
426.707	12.2
427.064	12.2
427.422	12.21
427.779	12.21
428.137	12.2
428.494	12.2
428.851	12.18
429.209	12.14
429.566	12.13
429.923	12.07
430.28	12.03
430.637	11.97
430.995	11.93
431.352	11.89
431.709	11.87
432.066	11.85
432.423	11.84
432.78	11.8
433.137	11.76
433.493	11.72
433.85	11.67
434.207	11.62
434.564	11.57
434.92	11.52
435.277	11.49
435.634	11.43
435.99	11.36
436.347	11.31
436.703	11.28
437.06	11.21
437.416	11.2
437.773	11.16
438.129	11.13
438.485	11.12
438.841	11.1
439.198	11.08
439.554	11.06
439.91	11.03
440.266	10.99
440.622	10.98
440.978	10.93
441.334	10.89
441.69	10.87
442.046	10.83
442.402	10.76
442.758	10.7
443.113	10.65
443.469	10.61
443.825	10.59
444.181	10.56
444.536	10.55
444.892	10.52
445.247	10.5
445.603	10.49
445.958	10.46
446.314	10.45
446.669	10.43
447.025	10.41
447.38	10.39
447.735	10.38
448.09	10.35
448.446	10.34
448.801	10.32
449.156	10.31
449.511	10.3
449.866	10.33
450.221	10.36
450.576	10.36
450.931	10.35
451.286	10.32
451.641	10.32
451.995	10.28
452.35	10.29
452.705	10.28
453.06	10.27
453.414	10.27
453.769	10.24
454.123	10.22
454.478	10.2
454.832	10.16
455.187	10.12
455.541	10.09
455.896	10.02
456.25	9.97
456.604	9.91
456.958	9.87
457.313	9.85
457.667	9.81
458.021	9.8
458.375	9.82
458.729	9.82
459.083	9.82
459.437	9.83
459.791	9.81
460.145	9.79
460.499	9.78
460.852	9.78
461.206	9.77
461.56	9.77
461.914	9.77
462.267	9.77
462.621	9.78
462.974	9.79
463.328	9.82
463.681	9.86
464.035	9.88
464.388	9.91
464.742	9.92
465.095	9.94
465.448	9.95
465.801	9.94
466.155	9.95
466.508	9.95
466.861	9.92
467.214	9.91
467.567	9.92
467.92	9.91
468.273	9.89
468.626	9.88
468.979	9.86
469.332	9.82
469.684	9.82
470.037	9.81
470.39	9.81
470.743	9.82
471.095	9.8
471.448	9.82
471.8	9.83
472.153	9.82
472.505	9.8
472.858	9.8
473.21	9.77
473.562	9.74
473.915	9.73
474.267	9.72
474.619	9.72
474.971	9.7
475.324	9.68
475.676	9.68
476.028	9.67
476.38	9.66
476.732	9.67
477.084	9.66
477.436	9.65
477.787	9.62
478.139	9.59
478.491	9.57
478.843	9.52
479.195	9.46
479.546	9.39
479.898	9.3
480.249	9.2
480.601	9.13
480.952	9.1
481.304	9.07
481.655	9.05
482.007	9.04
482.358	9.02
482.709	9.01
483.061	8.99
483.412	8.98
483.763	8.97
484.114	8.96
484.465	8.94
484.816	8.93
485.167	8.92
485.518	8.92
485.869	8.91
486.22	8.92
486.571	8.93
486.922	8.94
487.272	8.96
487.623	8.99
487.974	9.01
488.324	9.01
488.675	9.02
489.025	9.04
489.376	9.04
489.726	9.06
490.077	9.08
490.427	9.1
490.778	9.12
491.128	9.16
491.478	9.19
491.828	9.22
492.179	9.26
492.529	9.29
492.879	9.32
493.229	9.35
493.579	9.37
493.929	9.38
494.279	9.39
494.629	9.43
494.979	9.48
495.328	9.52
495.678	9.59
496.028	9.65
496.378	9.67
496.727	9.7
497.077	9.74
497.426	9.76
497.776	9.79
498.125	9.8
498.475	9.8
498.824	9.83
499.174	9.83
499.523	9.85
499.872	9.87
500.221	9.88
500.571	9.91
500.92	9.94
501.269	9.96
501.618	9.97
501.967	9.98
502.316	9.98
502.665	9.99
503.014	10
503.363	10.02
503.711	10.05
504.06	10.06
504.409	10.05
504.758	10.04
505.106	10.04
505.455	10.05
505.803	10.06
506.152	10.03
506.5	10.05
506.849	10.07
507.197	10.06
507.546	10.07
507.894	10.07
508.242	10.08
508.59	10.1
508.939	10.1
509.287	10.13
509.635	10.16
509.983	10.17
510.331	10.17
510.679	10.19
511.027	10.2
511.375	10.23
511.723	10.27
512.07	10.28
512.418	10.31
512.766	10.33
513.114	10.36
513.461	10.4
513.809	10.43
514.156	10.43
514.504	10.47
514.851	10.49
515.199	10.52
515.546	10.55
515.893	10.55
516.241	10.59
516.588	10.6
516.935	10.61
517.282	10.63
517.63	10.65
517.977	10.68
518.324	10.72
518.671	10.74
519.018	10.77
519.365	10.8
519.711	10.81
520.058	10.83
520.405	10.84
520.752	10.87
521.099	10.89
521.445	10.94
521.792	10.95
522.138	11
522.485	11.01
522.832	11.03
523.178	11.08
523.524	11.1
523.871	11.12
524.217	11.14
524.563	11.13
524.91	11.12
525.256	11.08
525.602	11.07
525.948	11.05
526.294	11.04
526.64	11.05
526.986	11.07
527.332	11.08
527.678	11.09
528.024	11.1
528.37	11.13
528.716	11.13
529.061	11.14
529.407	11.15
529.753	11.16
530.098	11.17
530.444	11.17
530.789	11.19
531.135	11.21
531.48	11.23
531.826	11.27
532.171	11.32
532.516	11.38
532.862	11.43
533.207	11.49
533.552	11.54
533.897	11.58
534.242	11.61
534.587	11.65
534.932	11.69
535.277	11.71
535.622	11.73
535.967	11.78
536.312	11.82
536.657	11.87
537.001	11.94
537.346	12
537.691	12.05
538.035	12.1
538.38	12.14
538.724	12.18
539.069	12.22
539.413	12.24
539.758	12.28
540.102	12.32
540.446	12.36
540.791	12.4
541.135	12.45
541.479	12.5
541.823	12.53
542.167	12.55
542.512	12.58
542.856	12.61
543.2	12.64
543.543	12.68
543.887	12.71
544.231	12.75
544.575	12.81
544.919	12.89
545.262	12.96
545.606	13.05
545.95	13.13
546.293	13.2
546.637	13.28
546.98	13.36
547.324	13.42
547.667	13.5
548.011	13.56
548.354	13.62
548.697	13.68
549.04	13.76
549.384	13.85
549.727	13.94
550.07	14.04
550.413	14.12
550.756	14.18
551.099	14.28
551.442	14.34
551.785	14.44
552.128	14.5
552.47	14.59
552.813	14.64
553.156	14.7
553.499	14.79
553.841	14.86
554.184	14.93
554.526	15.01
554.869	15.07
555.211	15.17
555.554	15.23
555.896	15.31
556.238	15.41
556.581	15.5
556.923	15.58
557.265	15.68
557.607	15.79
557.949	15.92
558.291	16.02
558.633	16.15
558.975	16.23
559.317	16.35
559.659	16.46
560.001	16.59
560.343	16.71
560.685	16.82
561.026	16.94
561.368	17.04
561.71	17.16
562.051	17.33
562.393	17.49
562.734	17.64
563.076	17.79
563.417	17.93
563.759	18.06
564.1	18.2
564.441	18.34
564.782	18.49
565.124	18.61
565.465	18.75
565.806	18.89
566.147	19.05
566.488	19.2
566.829	19.31
567.17	19.43
567.511	19.58
567.851	19.75
568.192	19.93
568.533	20.11
568.874	20.26
569.214	20.39
569.555	20.54
569.895	20.69
570.236	20.85
570.576	21.03
570.917	21.23
571.257	21.39
571.598	21.55
571.938	21.69
572.278	21.86
572.618	22.04
572.959	22.22
573.299	22.35
573.639	22.51
573.979	22.7
574.319	22.87
574.659	23.02
574.999	23.16
575.339	23.31
575.678	23.49
576.018	23.67
576.358	23.86
576.698	24.04
577.037	24.2
577.377	24.4
577.716	24.58
578.056	24.73
578.395	24.94
578.735	25.13
579.074	25.32
579.413	25.51
579.753	25.68
580.092	25.89
580.431	26.09
580.77	26.25
581.109	26.45
581.448	26.64
581.787	26.8
582.126	26.96
582.465	27.14
582.804	27.3
583.143	27.5
583.482	27.66
583.82	27.8
584.159	28
584.498	28.12
584.836	28.27
585.175	28.44
585.514	28.58
585.852	28.76
586.19	28.96
586.529	29.13
586.867	29.29
587.205	29.41
587.544	29.57
587.882	29.73
588.22	29.9
588.558	30.03
588.896	30.19
589.234	30.34
589.572	30.46
589.91	30.59
590.248	30.66
590.586	30.79
590.924	30.97
591.262	31.08
591.599	31.26
591.937	31.39
592.275	31.5
592.612	31.6
592.95	31.73
593.287	31.89
593.625	32.07
593.962	32.24
594.299	32.38
594.637	32.5
594.974	32.63
595.311	32.71
595.648	32.84
595.985	32.94
596.322	33.05
596.659	33.15
596.996	33.24
597.333	33.36
597.67	33.45
598.007	33.52
598.344	33.57
598.681	33.64
599.017	33.68
599.354	33.79
599.691	33.91
600.027	34.01
600.364	34.09
600.7	34.17
601.037	34.23
601.373	34.36
601.71	34.46
602.046	34.53
602.382	34.65
602.718	34.74
603.054	34.79
603.391	34.83
603.727	34.9
604.063	34.97
604.399	35.02
604.735	35.11
605.071	35.21
605.406	35.29
605.742	35.33
606.078	35.43
606.414	35.49
606.749	35.56
607.085	35.6
607.421	35.66
607.756	35.73
608.092	35.8
608.427	35.8
608.762	35.84
609.098	35.87
609.433	35.86
609.768	35.87
610.104	35.92
610.439	35.98
610.774	36
611.109	36
611.444	36.08
611.779	36.04
612.114	36
612.449	36.01
612.784	36.02
613.118	36.05
613.453	36.07
613.788	36.09
614.123	36.1
614.457	36.08
614.792	36.07
615.126	36.07
615.461	36.12
615.795	36.18
616.13	36.24
616.464	36.21
616.798	36.23
617.132	36.24
617.467	36.23
617.801	36.26
618.135	36.31
618.469	36.28
618.803	36.27
619.137	36.34
619.471	36.38
619.805	36.41
620.139	36.43
620.472	36.41
620.806	36.36
621.14	36.37
621.473	36.36
621.807	36.38
622.141	36.42
622.474	36.39
622.808	36.38
623.141	36.4
623.474	36.51
623.808	36.55
624.141	36.6
624.474	36.61
624.807	36.62
625.141	36.66
625.474	36.68
625.807	36.71
626.14	36.69
626.473	36.71
626.806	36.77
627.138	36.82
627.471	36.83
627.804	36.87
628.137	36.9
628.469	36.93
628.802	36.9
629.135	36.87
629.467	36.86
629.8	36.87
630.132	36.91
630.465	36.88
630.797	36.85
631.129	36.88
631.461	36.86
631.794	36.88
632.126	36.81
632.458	36.83
632.79	36.84
633.122	36.88
633.454	36.92
633.786	36.89
634.118	36.82
634.45	36.87
634.781	36.88
635.113	36.9
635.445	36.94
635.777	37.05
636.108	37.06
636.44	37.09
636.771	37.09
637.103	37.09
637.434	37.06
637.765	37.08
638.097	37
638.428	37.01
638.759	36.97
639.09	37.02
639.422	37.08
639.753	37.1
640.084	37.05
640.415	37.02
640.746	37.05
641.077	37.04
641.407	37.03
641.738	37.01
642.069	36.95
642.4	36.91
642.73	36.86
643.061	36.85
643.392	36.88
643.722	36.89
644.053	36.81
644.383	36.81
644.713	36.84
645.044	36.83
645.374	36.88
645.704	36.86
646.034	36.86
646.365	36.79
646.695	36.79
