Data from pcis_p_h3_p2_Reflection_1.txt Node
Date: Wed Jul 12 17:52:13 ART 2017
User: rodoncho
Spectrometer: USB2E3644
Trigger mode: 4
Integration Time (sec): 6.000000E-2
Scans to average: 10
Electric dark correction enabled: true
Nonlinearity correction enabled: false
Boxcar width: 10
XAxis mode: Wavelengths
Number of Pixels in Spectrum: 2048
>>>>>Begin Spectral Data<<<<<
178.315	-68.3
178.696	-18.7
179.076	9.55
179.457	43.01
179.838	65.83
180.218	-23.19
180.599	-73.25
180.979	-8.33
181.36	121.79
181.74	-48.48
182.121	88.54
182.501	97.74
182.881	85.05
183.262	19.52
183.642	-3116.67
184.022	273.48
184.402	229.39
184.783	145.34
185.163	143.13
185.543	112.85
185.923	105.12
186.303	106.07
186.683	117.43
187.063	136.13
187.443	153.81
187.823	153.2
188.203	151.71
188.583	147.97
188.963	152.58
189.343	148.3
189.723	153.9
190.102	151.8
190.482	147.89
190.862	143.52
191.242	137.23
191.621	137.67
192.001	141.47
192.38	138.52
192.76	139.66
193.14	135.21
193.519	138.84
193.898	136.78
194.278	134.41
194.657	131
195.037	130.68
195.416	127.61
195.795	127.46
196.175	125.98
196.554	126.68
196.933	128.33
197.312	128.33
197.692	125.78
198.071	120.81
198.45	119.47
198.829	117.28
199.208	117.48
199.587	115.39
199.966	113.53
200.345	112.53
200.724	112.05
201.103	114.3
201.482	114.3
201.86	115.56
202.239	116.77
202.618	116.03
202.997	113.79
203.375	114.29
203.754	112.6
204.133	110.01
204.511	107.7
204.89	105.81
205.269	105.71
205.647	107.72
206.026	110.28
206.404	109.75
206.782	111.34
207.161	113.12
207.539	113.74
207.918	115.32
208.296	116.52
208.674	117.11
209.052	115.78
209.431	114.71
209.809	113.23
210.187	113.2
210.565	113.83
210.943	115.34
211.321	114.78
211.699	115.57
212.077	116.18
212.455	117
212.833	117.52
213.211	118.46
213.589	116.15
213.967	116.51
214.345	117.83
214.722	118
215.1	116.83
215.478	115.61
215.855	115.42
216.233	114.64
216.611	112.94
216.988	110.8
217.366	110.65
217.743	111.44
218.121	110.73
218.498	109.6
218.876	108.38
219.253	107.3
219.631	106.15
220.008	107
220.385	108.11
220.762	109.18
221.14	108.79
221.517	108.72
221.894	108.53
222.271	107.96
222.648	106.23
223.025	105.7
223.402	106.62
223.78	106.37
224.157	107.19
224.533	109.46
224.91	111.79
225.287	112.8
225.664	112.95
226.041	111.08
226.418	110.51
226.795	111.23
227.171	113.06
227.548	114.93
227.925	117.06
228.301	117.12
228.678	118.01
229.055	118.15
229.431	118.33
229.808	118.59
230.184	119.06
230.561	121.47
230.937	122.34
231.313	122.13
231.69	121.98
232.066	121.76
232.442	120.9
232.819	120.86
233.195	120.87
233.571	121.41
233.947	124.02
234.323	125.56
234.699	125.47
235.075	124.89
235.451	126.38
235.827	125.29
236.203	126.31
236.579	127.11
236.955	127.16
237.331	129.13
237.707	130.37
238.083	133.37
238.459	138.02
238.834	143.87
239.21	150.27
239.586	154.87
239.961	157.4
240.337	160.86
240.713	163.6
241.088	166.17
241.464	169.6
241.839	174.36
242.215	183
242.59	196.25
242.965	219.4
243.341	261.11
243.716	328.77
244.091	412.48
244.467	536.45
244.842	766.74
245.217	1133.68
245.592	1422.75
245.967	1677.49
246.343	1450.15
246.718	1316.26
247.093	1388.94
247.468	1586.3
247.843	2052.11
248.218	4392.34
248.593	-4646.19
248.967	-1602.12
249.342	-1152.23
249.717	-1236.97
250.092	-1293.78
250.467	-1632.17
250.841	-4329.39
251.216	2443.53
251.591	1011.21
251.965	658.87
252.34	506.78
252.714	442.52
253.089	412.45
253.463	405.45
253.838	418.87
254.212	442.83
254.587	470.5
254.961	552.39
255.335	809.89
255.71	3635.93
256.084	-964.38
256.458	-420.78
256.832	-272.95
257.206	-224.27
257.581	-199.64
257.955	-184.22
258.329	-173.26
258.703	-161.35
259.077	-154.64
259.451	-147.32
259.825	-138.96
260.199	-133.49
260.572	-131
260.946	-127.11
261.32	-124.51
261.694	-119.79
262.068	-117.03
262.441	-115
262.815	-113.76
263.189	-114.95
263.562	-122.2
263.936	-139.78
264.309	-168.79
264.683	-206.88
265.056	-236.93
265.43	-248.42
265.803	-247.65
266.176	-236.53
266.55	-231.31
266.923	-222.43
267.296	-216.94
267.67	-203.07
268.043	-184.52
268.416	-166.68
268.789	-150.39
269.162	-133.15
269.535	-124.99
269.908	-118.45
270.281	-113.42
270.654	-113.74
271.027	-116.36
271.4	-118.01
271.773	-119.1
272.146	-118.5
272.519	-115.87
272.891	-112.51
273.264	-111.41
273.637	-111.51
274.01	-114.02
274.382	-113
274.755	-110.11
275.127	-108.24
275.5	-109.88
275.872	-108.75
276.245	-109.64
276.617	-112.1
276.99	-117.98
277.362	-121.48
277.734	-124.04
278.107	-122.48
278.479	-116.9
278.851	-112.5
279.223	-106.62
279.596	-103.21
279.968	-100.72
280.34	-100.91
280.712	-97.54
281.084	-91.73
281.456	-83.41
281.828	-76.02
282.2	-70.63
282.572	-66.29
282.944	-63.3
283.315	-61.15
283.687	-60.68
284.059	-60.38
284.431	-59.81
284.802	-59.21
285.174	-57.25
285.546	-55.26
285.917	-54.67
286.289	-53.66
286.66	-51.98
287.032	-52.19
287.403	-51.21
287.775	-51.44
288.146	-51.05
288.518	-51.08
288.889	-51.1
289.26	-52.85
289.632	-54.43
290.003	-55.55
290.374	-57.07
290.745	-57.78
291.116	-57.27
291.487	-55.9
291.858	-54.18
292.229	-52.62
292.6	-50.97
292.971	-50.02
293.342	-47.97
293.713	-46.16
294.084	-44.73
294.455	-44.07
294.826	-42.71
295.196	-43.17
295.567	-42.52
295.938	-41.9
296.308	-41.85
296.679	-40.98
297.05	-40.43
297.42	-39.69
297.791	-39.02
298.161	-38.1
298.532	-36.99
298.902	-36.53
299.272	-36.08
299.643	-35.47
300.013	-34.72
300.383	-34.35
300.754	-33.89
301.124	-34.44
301.494	-34.48
301.864	-34.61
302.234	-34.69
302.604	-34.76
302.974	-33.87
303.344	-33.01
303.714	-32.5
304.084	-31.35
304.454	-30.79
304.824	-29.4
305.194	-28.15
305.563	-27.1
305.933	-25.86
306.303	-24.66
306.673	-23.7
307.042	-23.06
307.412	-22.18
307.781	-21.41
308.151	-20.26
308.521	-19.42
308.89	-18.67
309.259	-18.11
309.629	-17.5
309.998	-17.15
310.368	-17.08
310.737	-17.04
311.106	-16.87
311.475	-16.2
311.845	-15.94
312.214	-15.71
312.583	-15.55
312.952	-15.36
313.321	-15.21
313.69	-15.48
314.059	-16.05
314.428	-16.72
314.797	-17.12
315.166	-17.84
315.535	-18.46
315.904	-19.07
316.272	-19.46
316.641	-19.74
317.01	-19.96
317.379	-20.08
317.747	-19.91
318.116	-19.29
318.484	-18.69
318.853	-18.21
319.221	-18.08
319.59	-17.88
319.958	-17.45
320.327	-17.15
320.695	-16.68
321.063	-16.24
321.432	-15.53
321.8	-14.88
322.168	-13.65
322.536	-12.56
322.905	-11.25
323.273	-10.29
323.641	-9.56
324.009	-9.31
324.377	-8.72
324.745	-8.08
325.113	-7.64
325.481	-6.97
325.849	-6.46
326.216	-5.86
326.584	-5.35
326.952	-5.04
327.32	-4.59
327.687	-4.28
328.055	-3.81
328.423	-3.71
328.79	-3.55
329.158	-3.49
329.525	-3.07
329.893	-2.77
330.26	-2.38
330.628	-2.49
330.995	-2.31
331.362	-2.02
331.73	-1.36
332.097	-1
332.464	-0.84
332.831	-0.5
333.199	-0.3
333.566	-0.16
333.933	-0.27
334.3	-0.32
334.667	-0.2
335.034	-0.15
335.401	-0.21
335.768	-0.32
336.135	-0.17
336.502	0.05
336.868	0.41
337.235	0.49
337.602	0.67
337.969	0.82
338.335	1.15
338.702	1.49
339.069	1.84
339.435	1.94
339.802	2.04
340.168	2.25
340.535	2.45
340.901	2.53
341.267	2.72
341.634	3.12
342	3.6
342.366	3.9
342.733	4.11
343.099	4.42
343.465	4.7
343.831	4.92
344.197	5.03
344.563	5.06
344.929	5.35
345.295	5.42
345.661	5.55
346.027	5.61
346.393	5.58
346.759	5.44
347.125	5.38
347.491	5.64
347.856	5.83
348.222	5.83
348.588	5.93
348.953	5.93
349.319	6
349.684	6.01
350.05	6.01
350.415	6.12
350.781	6.14
351.146	6.37
351.512	6.53
351.877	6.74
352.242	6.89
352.608	6.89
352.973	7.05
353.338	7.13
353.703	7.19
354.068	7.32
354.433	7.53
354.798	7.79
355.164	7.79
355.528	7.74
355.893	7.79
356.258	7.98
356.623	8.17
356.988	8.32
357.353	8.49
357.718	8.72
358.082	8.82
358.447	8.92
358.812	8.87
359.176	8.94
359.541	8.99
359.905	9.07
360.27	9.16
360.634	9.28
360.999	9.33
361.363	9.55
361.728	9.67
362.092	9.74
362.456	9.73
362.821	9.81
363.185	9.92
363.549	10.08
363.913	10.01
364.277	10.05
364.641	10.02
365.005	9.96
365.369	9.9
365.733	9.97
366.097	10.08
366.461	10.21
366.825	10.3
367.189	10.35
367.553	10.47
367.916	10.58
368.28	10.59
368.644	10.71
369.007	10.7
369.371	10.69
369.734	10.74
370.098	10.83
370.461	10.9
370.825	10.95
371.188	11.04
371.552	11.22
371.915	11.29
372.278	11.46
372.642	11.58
373.005	11.69
373.368	11.69
373.731	11.76
374.094	11.86
374.457	11.86
374.82	11.88
375.183	11.95
375.546	11.96
375.909	12.04
376.272	11.98
376.635	11.99
376.998	12.07
377.361	12.06
377.723	12.16
378.086	12.24
378.449	12.35
378.811	12.4
379.174	12.4
379.537	12.41
379.899	12.41
380.262	12.44
380.624	12.46
380.987	12.52
381.349	12.48
381.711	12.46
382.074	12.54
382.436	12.62
382.798	12.56
383.16	12.56
383.522	12.57
383.884	12.7
384.247	12.78
384.609	12.84
384.971	12.88
385.333	12.85
385.695	12.83
386.056	12.8
386.418	12.78
386.78	12.83
387.142	12.81
387.504	12.86
387.865	12.84
388.227	12.87
388.589	12.89
388.95	12.9
389.312	12.87
389.673	12.85
390.035	12.79
390.396	12.85
390.758	12.8
391.119	12.75
391.48	12.7
391.842	12.66
392.203	12.6
392.564	12.65
392.925	12.62
393.286	12.59
393.648	12.55
394.009	12.52
394.37	12.46
394.731	12.45
395.092	12.39
395.452	12.36
395.813	12.37
396.174	12.34
396.535	12.33
396.896	12.31
397.257	12.28
397.617	12.28
397.978	12.24
398.338	12.28
398.699	12.3
399.06	12.29
399.42	12.23
399.781	12.2
400.141	12.09
400.501	12.09
400.862	12.08
401.222	12.11
401.582	12.13
401.943	12.13
402.303	12.14
402.663	12.13
403.023	12.11
403.383	12.07
403.743	12.06
404.103	12.09
404.463	12.11
404.823	12.11
405.183	12.11
405.543	12.14
405.903	12.14
406.262	12.13
406.622	12.12
406.982	12.14
407.342	12.18
407.701	12.21
408.061	12.16
408.42	12.14
408.78	12.14
409.139	12.11
409.499	12.08
409.858	12.09
410.217	12.05
410.577	12.08
410.936	12.07
411.295	12.04
411.655	12
412.014	11.97
412.373	11.94
412.732	11.87
413.091	11.77
413.45	11.68
413.809	11.66
414.168	11.58
414.527	11.52
414.886	11.42
415.245	11.33
415.603	11.26
415.962	11.17
416.321	11.06
416.679	10.98
417.038	10.9
417.397	10.77
417.755	10.67
418.114	10.57
418.472	10.49
418.831	10.43
419.189	10.37
419.547	10.29
419.906	10.25
420.264	10.17
420.622	10.12
420.981	10.07
421.339	9.97
421.697	9.92
422.055	9.88
422.413	9.84
422.771	9.8
423.129	9.78
423.487	9.77
423.845	9.76
424.203	9.74
424.56	9.73
424.918	9.73
425.276	9.78
425.634	9.79
425.991	9.78
426.349	9.78
426.707	9.81
427.064	9.82
427.422	9.82
427.779	9.87
428.137	9.91
428.494	9.96
428.851	10.02
429.209	10.05
429.566	10.09
429.923	10.1
430.28	10.13
430.637	10.16
430.995	10.17
431.352	10.18
431.709	10.2
432.066	10.22
432.423	10.27
432.78	10.28
433.137	10.3
433.493	10.34
433.85	10.39
434.207	10.37
434.564	10.39
434.92	10.38
435.277	10.4
435.634	10.4
435.99	10.41
436.347	10.42
436.703	10.44
437.06	10.45
437.416	10.48
437.773	10.51
438.129	10.52
438.485	10.53
438.841	10.54
439.198	10.54
439.554	10.53
439.91	10.51
440.266	10.48
440.622	10.47
440.978	10.45
441.334	10.39
441.69	10.36
442.046	10.31
442.402	10.25
442.758	10.16
443.113	10.1
443.469	10.04
443.825	10.01
444.181	9.97
444.536	9.93
444.892	9.87
445.247	9.82
445.603	9.79
445.958	9.74
446.314	9.7
446.669	9.65
447.025	9.61
447.38	9.59
447.735	9.54
448.09	9.51
448.446	9.46
448.801	9.42
449.156	9.4
449.511	9.39
449.866	9.38
450.221	9.4
450.576	9.41
450.931	9.41
451.286	9.38
451.641	9.36
451.995	9.34
452.35	9.34
452.705	9.34
453.06	9.34
453.414	9.36
453.769	9.4
454.123	9.4
454.478	9.41
454.832	9.41
455.187	9.44
455.541	9.42
455.896	9.43
456.25	9.45
456.604	9.46
456.958	9.47
457.313	9.5
457.667	9.53
458.021	9.57
458.375	9.63
458.729	9.69
459.083	9.75
459.437	9.82
459.791	9.88
460.145	9.94
460.499	9.99
460.852	10.04
461.206	10.09
461.56	10.15
461.914	10.25
462.267	10.34
462.621	10.45
462.974	10.59
463.328	10.75
463.681	10.92
464.035	11.09
464.388	11.26
464.742	11.41
465.095	11.56
465.448	11.68
465.801	11.81
466.155	11.92
466.508	12.04
466.861	12.12
467.214	12.2
467.567	12.3
467.92	12.41
468.273	12.5
468.626	12.58
468.979	12.66
469.332	12.69
469.684	12.73
470.037	12.78
470.39	12.83
470.743	12.86
471.095	12.87
471.448	12.92
471.8	12.96
472.153	12.97
472.505	12.95
472.858	12.94
473.21	12.9
473.562	12.85
473.915	12.78
474.267	12.72
474.619	12.65
474.971	12.56
475.324	12.44
475.676	12.34
476.028	12.24
476.38	12.16
476.732	12.07
477.084	11.97
477.436	11.83
477.787	11.71
478.139	11.6
478.491	11.47
478.843	11.31
479.195	11.12
479.546	10.9
479.898	10.64
480.249	10.4
480.601	10.19
480.952	10.05
481.304	9.96
481.655	9.89
482.007	9.84
482.358	9.8
482.709	9.77
483.061	9.73
483.412	9.7
483.763	9.66
484.114	9.63
484.465	9.61
484.816	9.59
485.167	9.58
485.518	9.58
485.869	9.59
486.22	9.61
486.571	9.64
486.922	9.68
487.272	9.76
487.623	9.84
487.974	9.95
488.324	10.06
488.675	10.16
489.025	10.26
489.376	10.36
489.726	10.45
490.077	10.54
490.427	10.65
490.778	10.78
491.128	10.94
491.478	11.12
491.828	11.32
492.179	11.53
492.529	11.74
492.879	11.94
493.229	12.14
493.579	12.32
493.929	12.51
494.279	12.68
494.629	12.89
494.979	13.18
495.328	13.51
495.678	13.85
496.028	14.21
496.378	14.52
496.727	14.8
497.077	15.07
497.426	15.34
497.776	15.58
498.125	15.8
498.475	16.02
498.824	16.21
499.174	16.42
499.523	16.63
499.872	16.86
500.221	17.09
500.571	17.32
500.92	17.57
501.269	17.8
501.618	18.04
501.967	18.25
502.316	18.44
502.665	18.62
503.014	18.81
503.363	18.98
503.711	19.16
504.06	19.33
504.409	19.48
504.758	19.59
505.106	19.72
505.455	19.84
505.803	19.94
506.152	20.06
506.5	20.16
506.849	20.26
507.197	20.35
507.546	20.43
507.894	20.51
508.242	20.59
508.59	20.65
508.939	20.7
509.287	20.76
509.635	20.8
509.983	20.87
510.331	20.92
510.679	20.97
511.027	20.99
511.375	21.01
511.723	21.05
512.07	21.12
512.418	21.15
512.766	21.19
513.114	21.21
513.461	21.19
513.809	21.17
514.156	21.16
514.504	21.14
514.851	21.13
515.199	21.09
515.546	21.05
515.893	21.07
516.241	21.05
516.588	21.03
516.935	21.03
517.282	21.01
517.63	20.98
517.977	20.94
518.324	20.93
518.671	20.92
519.018	20.89
519.365	20.84
519.711	20.81
520.058	20.79
520.405	20.77
520.752	20.78
521.099	20.77
521.445	20.76
521.792	20.73
522.138	20.7
522.485	20.69
522.832	20.68
523.178	20.63
523.524	20.6
523.871	20.56
524.217	20.49
524.563	20.42
524.91	20.28
525.256	20.18
525.602	20.12
525.948	20.07
526.294	20.04
526.64	20.02
526.986	20.01
527.332	20
527.678	19.99
528.024	19.98
528.37	19.97
528.716	19.94
529.061	19.92
529.407	19.89
529.753	19.84
530.098	19.79
530.444	19.75
530.789	19.73
531.135	19.7
531.48	19.7
531.826	19.7
532.171	19.73
532.516	19.73
532.862	19.69
533.207	19.65
533.552	19.61
533.897	19.57
534.242	19.54
534.587	19.48
534.932	19.45
535.277	19.43
535.622	19.39
535.967	19.37
536.312	19.33
536.657	19.3
537.001	19.25
537.346	19.21
537.691	19.1
538.035	19
538.38	18.92
538.724	18.84
539.069	18.77
539.413	18.7
539.758	18.66
540.102	18.64
540.446	18.6
540.791	18.58
541.135	18.54
541.479	18.48
541.823	18.44
542.167	18.39
542.512	18.34
542.856	18.28
543.2	18.22
543.543	18.18
543.887	18.14
544.231	18.12
544.575	18.1
544.919	18.11
545.262	18.1
545.606	18.07
545.95	18.05
546.293	18.02
546.637	17.99
546.98	17.96
547.324	17.91
547.667	17.89
548.011	17.83
548.354	17.77
548.697	17.73
549.04	17.69
549.384	17.64
549.727	17.59
550.07	17.57
550.413	17.52
550.756	17.48
551.099	17.45
551.442	17.4
551.785	17.31
552.128	17.24
552.47	17.19
552.813	17.13
553.156	17.05
553.499	17
553.841	16.94
554.184	16.86
554.526	16.79
554.869	16.7
555.211	16.63
555.554	16.6
555.896	16.53
556.238	16.46
556.581	16.42
556.923	16.32
557.265	16.25
557.607	16.19
557.949	16.13
558.291	16.06
558.633	15.97
558.975	15.92
559.317	15.85
559.659	15.8
560.001	15.75
560.343	15.7
560.685	15.62
561.026	15.55
561.368	15.48
561.71	15.39
562.051	15.34
562.393	15.3
562.734	15.21
563.076	15.18
563.417	15.11
563.759	15.04
564.1	15
564.441	14.97
564.782	14.9
565.124	14.86
565.465	14.82
565.806	14.78
566.147	14.75
566.488	14.71
566.829	14.63
567.17	14.58
567.511	14.51
567.851	14.45
568.192	14.41
568.533	14.39
568.874	14.38
569.214	14.33
569.555	14.27
569.895	14.23
570.236	14.17
570.576	14.13
570.917	14.1
571.257	14.05
571.598	13.96
571.938	13.92
572.278	13.87
572.618	13.82
572.959	13.76
573.299	13.7
573.639	13.64
573.979	13.61
574.319	13.57
574.659	13.54
574.999	13.5
575.339	13.45
575.678	13.36
576.018	13.3
576.358	13.25
576.698	13.2
577.037	13.14
577.377	13.08
577.716	13.02
578.056	12.98
578.395	12.91
578.735	12.86
579.074	12.79
579.413	12.74
579.753	12.65
580.092	12.61
580.431	12.55
580.77	12.49
581.109	12.43
581.448	12.36
581.787	12.27
582.126	12.21
582.465	12.16
582.804	12.17
583.143	12.12
583.482	12.06
583.82	12.01
584.159	11.96
584.498	11.91
584.836	11.87
585.175	11.8
585.514	11.76
585.852	11.77
586.19	11.74
586.529	11.68
586.867	11.66
587.205	11.66
587.544	11.62
587.882	11.62
588.22	11.6
588.558	11.6
588.896	11.56
589.234	11.54
589.572	11.52
589.91	11.44
590.248	11.4
590.586	11.39
590.924	11.38
591.262	11.37
591.599	11.32
591.937	11.31
592.275	11.29
592.612	11.28
592.95	11.23
593.287	11.26
593.625	11.25
593.962	11.28
594.299	11.25
594.637	11.26
594.974	11.22
595.311	11.19
595.648	11.19
595.985	11.19
596.322	11.19
596.659	11.18
596.996	11.14
597.333	11.11
597.67	11.08
598.007	11.04
598.344	11.02
598.681	11.02
599.017	10.94
599.354	10.91
599.691	10.86
600.027	10.83
600.364	10.79
600.7	10.76
601.037	10.71
601.373	10.71
601.71	10.7
602.046	10.69
602.382	10.68
602.718	10.65
603.054	10.61
603.391	10.59
603.727	10.57
604.063	10.56
604.399	10.54
604.735	10.54
605.071	10.51
605.406	10.52
605.742	10.52
606.078	10.57
606.414	10.55
606.749	10.58
607.085	10.57
607.421	10.53
607.756	10.51
608.092	10.48
608.427	10.43
608.762	10.37
609.098	10.33
609.433	10.29
609.768	10.23
610.104	10.21
610.439	10.19
610.774	10.15
611.109	10.1
611.444	10.08
611.779	10.03
612.114	9.99
612.449	9.93
612.784	9.86
613.118	9.79
613.453	9.73
613.788	9.65
614.123	9.56
614.457	9.5
614.792	9.46
615.126	9.38
615.461	9.3
615.795	9.22
616.13	9.18
616.464	9.11
616.798	9.08
617.132	9.06
617.467	9.05
617.801	9.01
618.135	9.01
618.469	9
618.803	8.97
619.137	8.96
619.471	8.94
619.805	8.91
620.139	8.83
620.472	8.85
620.806	8.82
621.14	8.81
621.473	8.77
621.807	8.73
622.141	8.7
622.474	8.67
622.808	8.7
623.141	8.73
623.474	8.73
623.808	8.73
624.141	8.75
624.474	8.75
624.807	8.78
625.141	8.82
625.474	8.79
625.807	8.82
626.14	8.84
626.473	8.85
626.806	8.89
627.138	8.94
627.471	8.87
627.804	8.85
628.137	8.84
628.469	8.85
628.802	8.85
629.135	8.84
629.467	8.85
629.8	8.82
630.132	8.78
630.465	8.81
630.797	8.82
631.129	8.77
631.461	8.74
631.794	8.71
632.126	8.63
632.458	8.6
632.79	8.56
633.122	8.54
633.454	8.48
633.786	8.41
634.118	8.36
634.45	8.36
634.781	8.33
635.113	8.31
635.445	8.3
635.777	8.29
636.108	8.29
636.44	8.27
636.771	8.23
637.103	8.18
637.434	8.12
637.765	8.06
638.097	8.04
638.428	7.98
638.759	7.93
639.09	7.93
639.422	7.92
639.753	7.87
640.084	7.86
640.415	7.85
640.746	7.88
641.077	7.8
641.407	7.77
641.738	7.75
642.069	7.77
642.4	7.71
642.73	7.68
643.061	7.64
643.392	7.62
643.722	7.64
644.053	7.6
644.383	7.58
644.713	7.54
645.044	7.51
645.374	7.53
645.704	7.51
646.034	7.51
646.365	7.49
646.695	7.5
647.025	7.48
647.355	7.46
647.685	7.47
