Data from pcis_p_m3_p5_Reflection_1.txt Node
Date: Wed Jul 12 17:48:26 ART 2017
User: rodoncho
Spectrometer: USB2E3644
Trigger mode: 4
Integration Time (sec): 6.000000E-2
Scans to average: 10
Electric dark correction enabled: true
Nonlinearity correction enabled: false
Boxcar width: 10
XAxis mode: Wavelengths
Number of Pixels in Spectrum: 2048
>>>>>Begin Spectral Data<<<<<
178.315	663.41
178.696	887.5
179.076	621.92
179.457	2676.47
179.838	-592.31
180.218	-90.91
180.599	34.91
180.979	281.82
181.36	-86.89
181.74	-102.33
182.121	700
182.501	84.21
182.881	74.79
183.262	59.17
183.642	-32.69
184.022	505.88
184.402	259.74
184.783	171.35
185.163	201.97
185.543	161.09
185.923	150.65
186.303	129.4
186.683	136.72
187.063	141.79
187.443	146.31
187.823	132.76
188.203	122.02
188.583	120.03
188.963	116.1
189.343	107.42
189.723	101.67
190.102	100.79
190.482	103.78
190.862	105.25
191.242	106.92
191.621	109.22
192.001	107.91
192.38	111.89
192.76	113.04
193.14	111.74
193.519	112.91
193.898	111.2
194.278	115.3
194.657	115.69
195.037	113.59
195.416	112.81
195.795	115.14
196.175	116.83
196.554	116.8
196.933	116.11
197.312	115.27
197.692	116.61
198.071	117.93
198.45	116.42
198.829	117.89
199.208	117.18
199.587	118.02
199.966	119.38
200.345	116.11
200.724	115.99
201.103	116.85
201.482	118.98
201.86	119.68
202.239	118.28
202.618	118.4
202.997	116.27
203.375	116.2
203.754	116.86
204.133	116.37
204.511	115.44
204.89	115.11
205.269	118.52
205.647	119.85
206.026	119.04
206.404	118.86
206.782	115.39
207.161	113.83
207.539	113.5
207.918	112.21
208.296	111.59
208.674	111.13
209.052	110.77
209.431	110.36
209.809	110.81
210.187	111.53
210.565	111.71
210.943	112.67
211.321	112.49
211.699	111.11
212.077	110.51
212.455	110.3
212.833	110.61
213.211	109.03
213.589	107.5
213.967	107.79
214.345	106.99
214.722	108.16
215.1	108.23
215.478	108.54
215.855	110.11
216.233	111.17
216.611	110.24
216.988	109.51
217.366	109.19
217.743	108.2
218.121	107.23
218.498	106.2
218.876	106.47
219.253	106
219.631	105.03
220.008	106.4
220.385	106.96
220.762	108.14
221.14	109.53
221.517	111.62
221.894	112.28
222.271	112
222.648	111.93
223.025	112.58
223.402	110.78
223.78	109.72
224.157	109.09
224.533	110.01
224.91	110.76
225.287	110.63
225.664	111.21
226.041	112.06
226.418	112.22
226.795	112.84
227.171	113.4
227.548	114.87
227.925	114.2
228.301	114.27
228.678	113.21
229.055	111.37
229.431	109.81
229.808	108.78
230.184	111.09
230.561	111.66
230.937	112.48
231.313	113.85
231.69	113.56
232.066	114.68
232.442	114.8
232.819	114.77
233.195	114.32
233.571	113.68
233.947	113.73
234.323	114.04
234.699	114.97
235.075	116.16
235.451	116.16
235.827	116.32
236.203	117.85
236.579	120.53
236.955	123.04
237.331	124.1
237.707	128.17
238.083	129.03
238.459	132.38
238.834	137.62
239.21	142.6
239.586	148.27
239.961	152.03
240.337	154.45
240.713	156.95
241.088	160.08
241.464	165.17
241.839	169.55
242.215	178.08
242.59	188.52
242.965	212.31
243.341	262.77
243.716	341.93
244.091	465.26
244.467	623.3
244.842	1014.72
245.217	2090.78
245.592	4002.8
245.967	11286.84
246.343	5032.56
246.718	3376.56
247.093	2489.6
247.468	2555.69
247.843	4016.82
248.218	-6392.54
248.593	-1725.51
248.967	-991.1
249.342	-785.98
249.717	-778.49
250.092	-857.81
250.467	-973.9
250.841	-1771.85
251.216	3576.47
251.591	1014.12
251.965	607.37
252.34	478.12
252.714	388.19
253.089	351.42
253.463	340.95
253.838	344.08
254.212	365.87
254.587	394
254.961	475.25
255.335	665.7
255.71	2137.93
256.084	-1086.29
256.458	-397.85
256.832	-246.15
257.206	-201.75
257.581	-177
257.955	-163.59
258.329	-157.71
258.703	-145.76
259.077	-134.08
259.451	-129.08
259.825	-122.53
260.199	-117.36
260.572	-114.56
260.946	-111.73
261.32	-111.8
261.694	-108.26
262.068	-106.8
262.441	-105.3
262.815	-103.54
263.189	-103.72
263.562	-109.08
263.936	-124.6
264.309	-153.25
264.683	-195.22
265.056	-218.87
265.43	-229.09
265.803	-224.27
266.176	-211.83
266.55	-209.07
266.923	-205.53
267.296	-188.83
267.67	-179.68
268.043	-166.13
268.416	-148.17
268.789	-131.72
269.162	-116.24
269.535	-107.87
269.908	-102.03
270.281	-98.87
270.654	-98.24
271.027	-99.53
271.4	-102.87
271.773	-105.38
272.146	-103.88
272.519	-99.3
272.891	-97.46
273.264	-96.54
273.637	-94.31
274.01	-94.45
274.382	-92.71
274.755	-91.93
275.127	-91.98
275.5	-90.75
275.872	-90.69
276.245	-91.56
276.617	-92.9
276.99	-97.31
277.362	-100.86
277.734	-100.41
278.107	-98.67
278.479	-93.36
278.851	-89.05
279.223	-84.36
279.596	-80.97
279.968	-78.32
280.34	-77.76
280.712	-74.67
281.084	-69.74
281.456	-64.62
281.828	-59.17
282.2	-54.21
282.572	-50.26
282.944	-47.85
283.315	-47.21
283.687	-46.33
284.059	-46.51
284.431	-45.99
284.802	-44.65
285.174	-43.7
285.546	-42.87
285.917	-42.06
286.289	-41.22
286.66	-40.24
287.032	-39.94
287.403	-39.08
287.775	-38.64
288.146	-38.09
288.518	-38.22
288.889	-38.52
289.26	-39.87
289.632	-41.09
290.003	-43.31
290.374	-45.07
290.745	-45.78
291.116	-44.69
291.487	-42.87
291.858	-41.44
292.229	-40.89
292.6	-39.82
292.971	-37.78
293.342	-35.21
293.713	-33.34
294.084	-32.33
294.455	-31.51
294.826	-30.24
295.196	-30.29
295.567	-29.99
295.938	-29.66
296.308	-29.84
296.679	-29.21
297.05	-28.21
297.42	-27.53
297.791	-26.69
298.161	-25.36
298.532	-25
298.902	-24.7
299.272	-24.56
299.643	-23.61
300.013	-22.79
300.383	-22.26
300.754	-22.32
301.124	-22.85
301.494	-22.72
301.864	-22.95
302.234	-22.87
302.604	-23.31
302.974	-22.91
303.344	-23.05
303.714	-23.03
304.084	-21.93
304.454	-21.99
304.824	-21.73
305.194	-21.22
305.563	-20.33
305.933	-19.6
306.303	-17.78
306.673	-16.78
307.042	-16.3
307.412	-15.75
307.781	-14.6
308.151	-13.75
308.521	-13.16
308.89	-12.55
309.259	-12.34
309.629	-12.11
309.998	-12.12
310.368	-11.67
310.737	-11.47
311.106	-10.88
311.475	-10.03
311.845	-9.67
312.214	-9.12
312.583	-8.57
312.952	-8.25
313.321	-8.25
313.69	-8.5
314.059	-9.2
314.428	-9.5
314.797	-9.88
315.166	-10.73
315.535	-11.53
315.904	-12.13
316.272	-12.25
316.641	-12.76
317.01	-12.78
317.379	-12.53
317.747	-12.3
318.116	-12.1
318.484	-11.67
318.853	-11.12
319.221	-11.07
319.59	-10.86
319.958	-10.39
320.327	-9.97
320.695	-9.49
321.063	-9.01
321.432	-8.33
321.8	-7.9
322.168	-6.94
322.536	-5.89
322.905	-4.71
323.273	-3.99
323.641	-3.51
324.009	-3.72
324.377	-3.19
324.745	-2.91
325.113	-2.66
325.481	-2.21
325.849	-1.74
326.216	-1.24
326.584	-0.69
326.952	-0.35
327.32	0.12
327.687	0.45
328.055	0.73
328.423	0.9
328.79	1.05
329.158	1
329.525	1.28
329.893	1.28
330.26	1.38
330.628	1.22
330.995	1.43
331.362	1.83
331.73	2.62
332.097	3.02
332.464	3.31
332.831	3.48
333.199	3.92
333.566	4.11
333.933	3.95
334.3	3.52
334.667	3.74
335.034	3.8
335.401	3.65
335.768	3.63
336.135	3.71
336.502	3.93
336.868	4.36
337.235	4.6
337.602	4.97
337.969	5.25
338.335	5.78
338.702	6
339.069	6.12
339.435	6.22
339.802	6.22
340.168	6.42
340.535	6.78
340.901	6.87
341.267	7.1
341.634	7.5
342	7.81
342.366	7.81
342.733	8.05
343.099	8.5
343.465	8.85
343.831	9.19
344.197	9.41
344.563	9.49
344.929	9.64
345.295	9.89
345.661	10.15
346.027	10.34
346.393	10.44
346.759	10.45
347.125	10.57
347.491	10.84
347.856	11
348.222	10.97
348.588	10.97
348.953	11.06
349.319	11.23
349.684	11.47
350.05	11.76
350.415	12.02
350.781	12.18
351.146	12.31
351.512	12.31
351.877	12.49
352.242	12.65
352.608	12.76
352.973	12.8
353.338	12.8
353.703	12.82
354.068	12.92
354.433	13.24
354.798	13.45
355.164	13.55
355.528	13.62
355.893	13.82
356.258	14.02
356.623	14.15
356.988	14.27
357.353	14.44
357.718	14.5
358.082	14.46
358.447	14.44
358.812	14.53
359.176	14.68
359.541	14.67
359.905	14.76
360.27	14.89
360.634	15.02
360.999	15.12
361.363	15.28
361.728	15.35
362.092	15.36
362.456	15.32
362.821	15.3
363.185	15.37
363.549	15.41
363.913	15.49
364.277	15.56
364.641	15.6
365.005	15.68
365.369	15.7
365.733	15.81
366.097	16
366.461	15.93
366.825	15.96
367.189	16.04
367.553	16.1
367.916	16.15
368.28	16.18
368.644	16.35
369.007	16.38
369.371	16.48
369.734	16.63
370.098	16.83
370.461	16.98
370.825	17.07
371.188	17.18
371.552	17.24
371.915	17.34
372.278	17.35
372.642	17.37
373.005	17.49
373.368	17.53
373.731	17.53
374.094	17.64
374.457	17.71
374.82	17.84
375.183	17.88
375.546	17.96
375.909	18.01
376.272	17.96
376.635	17.99
376.998	17.93
377.361	17.91
377.723	17.87
378.086	17.87
378.449	17.93
378.811	17.96
379.174	18.01
379.537	18.02
379.899	18.15
380.262	18.23
380.624	18.21
380.987	18.25
381.349	18.25
381.711	18.25
382.074	18.33
382.436	18.38
382.798	18.35
383.16	18.31
383.522	18.31
383.884	18.35
384.247	18.43
384.609	18.56
384.971	18.64
385.333	18.68
385.695	18.69
386.056	18.69
386.418	18.69
386.78	18.65
387.142	18.65
387.504	18.56
387.865	18.51
388.227	18.59
388.589	18.6
388.95	18.6
389.312	18.63
389.673	18.59
390.035	18.56
390.396	18.59
390.758	18.59
391.119	18.58
391.48	18.57
391.842	18.55
392.203	18.5
392.564	18.44
392.925	18.45
393.286	18.45
393.648	18.49
394.009	18.49
394.37	18.49
394.731	18.48
395.092	18.44
395.452	18.44
395.813	18.43
396.174	18.4
396.535	18.41
396.896	18.39
397.257	18.39
397.617	18.34
397.978	18.33
398.338	18.41
398.699	18.4
399.06	18.41
399.42	18.36
399.781	18.32
400.141	18.26
400.501	18.2
400.862	18.19
401.222	18.12
401.582	18.1
401.943	18.09
402.303	18.08
402.663	18.09
403.023	18.07
403.383	18.03
403.743	18
404.103	17.98
404.463	17.99
404.823	17.95
405.183	17.91
405.543	17.87
405.903	17.77
406.262	17.72
406.622	17.64
406.982	17.59
407.342	17.56
407.701	17.55
408.061	17.54
408.42	17.51
408.78	17.46
409.139	17.42
409.499	17.36
409.858	17.33
410.217	17.29
410.577	17.24
410.936	17.16
411.295	17.11
411.655	17.04
412.014	16.95
412.373	16.87
412.732	16.79
413.091	16.75
413.45	16.68
413.809	16.6
414.168	16.49
414.527	16.4
414.886	16.26
415.245	16.17
415.603	16.03
415.962	15.94
416.321	15.82
416.679	15.73
417.038	15.64
417.397	15.51
417.755	15.41
418.114	15.33
418.472	15.27
418.831	15.21
419.189	15.15
419.547	15.07
419.906	15
420.264	14.92
420.622	14.82
420.981	14.75
421.339	14.7
421.697	14.65
422.055	14.62
422.413	14.6
422.771	14.56
423.129	14.56
423.487	14.53
423.845	14.52
424.203	14.47
424.56	14.43
424.918	14.42
425.276	14.42
425.634	14.41
425.991	14.35
426.349	14.32
426.707	14.31
427.064	14.28
427.422	14.27
427.779	14.29
428.137	14.29
428.494	14.26
428.851	14.24
429.209	14.19
429.566	14.11
429.923	14.01
430.28	13.96
430.637	13.86
430.995	13.83
431.352	13.78
431.709	13.78
432.066	13.78
432.423	13.74
432.78	13.71
433.137	13.68
433.493	13.65
433.85	13.61
434.207	13.53
434.564	13.47
434.92	13.43
435.277	13.34
435.634	13.27
435.99	13.2
436.347	13.11
436.703	13.04
437.06	12.96
437.416	12.93
437.773	12.87
438.129	12.82
438.485	12.77
438.841	12.74
439.198	12.7
439.554	12.66
439.91	12.62
440.266	12.54
440.622	12.48
440.978	12.43
441.334	12.36
441.69	12.3
442.046	12.23
442.402	12.15
442.758	12.09
443.113	12.04
443.469	11.99
443.825	11.96
444.181	11.94
444.536	11.93
444.892	11.89
445.247	11.86
445.603	11.84
445.958	11.81
446.314	11.76
446.669	11.72
447.025	11.68
447.38	11.64
447.735	11.62
448.09	11.61
448.446	11.59
448.801	11.57
449.156	11.56
449.511	11.54
449.866	11.55
450.221	11.57
450.576	11.56
450.931	11.53
451.286	11.48
451.641	11.43
451.995	11.38
452.35	11.36
452.705	11.33
453.06	11.3
453.414	11.28
453.769	11.26
454.123	11.22
454.478	11.17
454.832	11.14
455.187	11.07
455.541	10.96
455.896	10.86
456.25	10.77
456.604	10.68
456.958	10.61
457.313	10.55
457.667	10.52
458.021	10.48
458.375	10.47
458.729	10.46
459.083	10.43
459.437	10.42
459.791	10.4
460.145	10.38
460.499	10.35
460.852	10.3
461.206	10.26
461.56	10.23
461.914	10.21
462.267	10.17
462.621	10.16
462.974	10.16
463.328	10.16
463.681	10.16
464.035	10.16
464.388	10.16
464.742	10.14
465.095	10.08
465.448	10.04
465.801	10
466.155	9.95
466.508	9.92
466.861	9.89
467.214	9.85
467.567	9.82
467.92	9.8
468.273	9.79
468.626	9.77
468.979	9.72
469.332	9.68
469.684	9.66
470.037	9.63
470.39	9.59
470.743	9.57
471.095	9.56
471.448	9.56
471.8	9.56
472.153	9.54
472.505	9.53
472.858	9.51
473.21	9.48
473.562	9.45
473.915	9.43
474.267	9.4
474.619	9.36
474.971	9.33
475.324	9.29
475.676	9.26
476.028	9.24
476.38	9.22
476.732	9.2
477.084	9.17
477.436	9.13
477.787	9.11
478.139	9.07
478.491	9.01
478.843	8.95
479.195	8.89
479.546	8.78
479.898	8.61
480.249	8.46
480.601	8.34
480.952	8.27
481.304	8.23
481.655	8.21
482.007	8.2
482.358	8.19
482.709	8.19
483.061	8.16
483.412	8.12
483.763	8.08
484.114	8.04
484.465	8.01
484.816	7.99
485.167	7.97
485.518	7.95
485.869	7.96
486.22	7.95
486.571	7.95
486.922	7.96
487.272	7.98
487.623	8
487.974	8
488.324	7.99
488.675	7.97
489.025	7.95
489.376	7.95
489.726	7.94
490.077	7.94
490.427	7.94
490.778	7.97
491.128	7.99
491.478	8.04
491.828	8.07
492.179	8.09
492.529	8.09
492.879	8.09
493.229	8.08
493.579	8.06
493.929	8.04
494.279	8.03
494.629	8.03
494.979	8.06
495.328	8.11
495.678	8.17
496.028	8.22
496.378	8.22
496.727	8.21
497.077	8.2
497.426	8.18
497.776	8.18
498.125	8.15
498.475	8.15
498.824	8.13
499.174	8.14
499.523	8.15
499.872	8.15
500.221	8.14
500.571	8.14
500.92	8.14
501.269	8.15
501.618	8.15
501.967	8.14
502.316	8.12
502.665	8.1
503.014	8.07
503.363	8.06
503.711	8.08
504.06	8.06
504.409	8.03
504.758	7.97
505.106	7.94
505.455	7.93
505.803	7.9
506.152	7.89
506.5	7.85
506.849	7.84
507.197	7.85
507.546	7.86
507.894	7.87
508.242	7.88
508.59	7.86
508.939	7.86
509.287	7.85
509.635	7.87
509.983	7.87
510.331	7.88
510.679	7.88
511.027	7.86
511.375	7.88
511.723	7.9
512.07	7.93
512.418	7.96
512.766	7.97
513.114	7.99
513.461	7.99
513.809	8.01
514.156	7.99
514.504	7.98
514.851	7.95
515.199	7.92
515.546	7.9
515.893	7.89
516.241	7.9
516.588	7.91
516.935	7.91
517.282	7.91
517.63	7.9
517.977	7.9
518.324	7.92
518.671	7.92
519.018	7.91
519.365	7.91
519.711	7.9
520.058	7.89
520.405	7.89
520.752	7.89
521.099	7.89
521.445	7.91
521.792	7.89
522.138	7.88
522.485	7.89
522.832	7.89
523.178	7.91
523.524	7.9
523.871	7.87
524.217	7.85
524.563	7.8
524.91	7.73
525.256	7.65
525.602	7.59
525.948	7.55
526.294	7.54
526.64	7.55
526.986	7.55
527.332	7.55
527.678	7.56
528.024	7.57
528.37	7.57
528.716	7.57
529.061	7.57
529.407	7.57
529.753	7.56
530.098	7.55
530.444	7.54
530.789	7.52
531.135	7.54
531.48	7.56
531.826	7.59
532.171	7.64
532.516	7.69
532.862	7.72
533.207	7.77
533.552	7.77
533.897	7.78
534.242	7.78
534.587	7.79
534.932	7.79
535.277	7.8
535.622	7.8
535.967	7.83
536.312	7.86
536.657	7.9
537.001	7.92
537.346	7.95
537.691	7.95
538.035	7.93
538.38	7.91
538.724	7.89
539.069	7.88
539.413	7.87
539.758	7.88
540.102	7.92
540.446	7.92
540.791	7.93
541.135	7.96
541.479	7.97
541.823	7.98
542.167	7.98
542.512	7.98
542.856	7.97
543.2	7.95
543.543	7.94
543.887	7.93
544.231	7.97
544.575	8
544.919	8.05
545.262	8.11
545.606	8.15
545.95	8.2
546.293	8.23
546.637	8.26
546.98	8.29
547.324	8.3
547.667	8.35
548.011	8.38
548.354	8.39
548.697	8.41
549.04	8.44
549.384	8.46
549.727	8.49
550.07	8.56
550.413	8.58
550.756	8.61
551.099	8.64
551.442	8.66
551.785	8.68
552.128	8.69
552.47	8.72
552.813	8.75
553.156	8.75
553.499	8.79
553.841	8.83
554.184	8.84
554.526	8.85
554.869	8.86
555.211	8.88
555.554	8.92
555.896	8.95
556.238	8.99
556.581	9.03
556.923	9.04
557.265	9.07
557.607	9.14
557.949	9.21
558.291	9.25
558.633	9.3
558.975	9.33
559.317	9.37
559.659	9.42
560.001	9.47
560.343	9.52
560.685	9.53
561.026	9.57
561.368	9.62
561.71	9.65
562.051	9.69
562.393	9.77
562.734	9.81
563.076	9.86
563.417	9.91
563.759	10
564.1	10.07
564.441	10.15
564.782	10.19
565.124	10.25
565.465	10.3
565.806	10.37
566.147	10.46
566.488	10.54
566.829	10.59
567.17	10.68
567.511	10.75
567.851	10.84
568.192	10.96
568.533	11.09
568.874	11.24
569.214	11.36
569.555	11.48
569.895	11.61
570.236	11.76
570.576	11.88
570.917	12.02
571.257	12.16
571.598	12.27
571.938	12.42
572.278	12.55
572.618	12.7
572.959	12.81
573.299	12.88
573.639	13.02
573.979	13.18
574.319	13.32
574.659	13.46
574.999	13.61
575.339	13.73
575.678	13.87
576.018	13.99
576.358	14.17
576.698	14.31
577.037	14.47
577.377	14.61
577.716	14.78
578.056	14.95
578.395	15.14
578.735	15.31
579.074	15.51
579.413	15.69
579.753	15.87
580.092	16.09
580.431	16.34
580.77	16.58
581.109	16.78
581.448	16.95
581.787	17.15
582.126	17.39
582.465	17.61
582.804	17.84
583.143	18.11
583.482	18.29
583.82	18.53
584.159	18.74
584.498	18.96
584.836	19.2
585.175	19.39
585.514	19.61
585.852	19.89
586.19	20.15
586.529	20.46
586.867	20.76
587.205	21.06
587.544	21.33
587.882	21.53
588.22	21.79
588.558	22.07
588.896	22.35
589.234	22.57
589.572	22.83
589.91	23.1
590.248	23.36
590.586	23.61
590.924	23.84
591.262	24.11
591.599	24.41
591.937	24.72
592.275	24.98
592.612	25.27
592.95	25.57
593.287	25.84
593.625	26.11
593.962	26.41
594.299	26.71
594.637	27.01
594.974	27.31
595.311	27.57
595.648	27.83
595.985	28.11
596.322	28.36
596.659	28.6
596.996	28.76
597.333	28.96
597.67	29.2
598.007	29.43
598.344	29.65
598.681	29.82
599.017	29.98
599.354	30.24
599.691	30.46
600.027	30.73
600.364	31.02
600.7	31.32
601.037	31.6
601.373	31.9
601.71	32.17
602.046	32.41
602.382	32.61
602.718	32.78
603.054	32.95
603.391	33.13
603.727	33.32
604.063	33.54
604.399	33.69
604.735	33.86
605.071	34.04
605.406	34.22
605.742	34.43
606.078	34.59
606.414	34.77
606.749	34.99
607.085	35.13
607.421	35.3
607.756	35.47
608.092	35.66
608.427	35.77
608.762	35.91
609.098	36.07
609.433	36.22
609.768	36.37
610.104	36.49
610.439	36.62
610.774	36.74
611.109	36.86
611.444	37
611.779	37.12
612.114	37.2
612.449	37.3
612.784	37.45
613.118	37.63
613.453	37.78
613.788	37.9
614.123	38.05
614.457	38.18
614.792	38.32
615.126	38.46
615.461	38.58
615.795	38.72
616.13	38.84
616.464	39
616.798	39.11
617.132	39.23
617.467	39.35
617.801	39.39
618.135	39.51
618.469	39.59
618.803	39.69
619.137	39.84
619.471	39.98
619.805	40.08
620.139	40.15
620.472	40.26
620.806	40.39
621.14	40.47
621.473	40.57
621.807	40.64
622.141	40.73
622.474	40.87
622.808	40.93
623.141	41.04
623.474	41.18
623.808	41.31
624.141	41.4
624.474	41.51
624.807	41.68
625.141	41.8
625.474	41.88
625.807	41.99
626.14	42.1
626.473	42.23
626.806	42.32
627.138	42.4
627.471	42.49
627.804	42.53
628.137	42.57
628.469	42.59
628.802	42.69
629.135	42.71
629.467	42.79
629.8	42.88
630.132	42.93
630.465	42.96
630.797	43.01
631.129	43.04
631.461	43.07
631.794	43.16
632.126	43.15
632.458	43.19
632.79	43.25
633.122	43.27
633.454	43.3
633.786	43.29
634.118	43.38
634.45	43.39
634.781	43.48
635.113	43.57
635.445	43.64
635.777	43.7
636.108	43.76
636.44	43.8
636.771	43.83
637.103	43.83
637.434	43.88
637.765	43.89
638.097	44.02
638.428	44.08
638.759	44.03
639.09	44.09
639.422	44.18
639.753	44.2
640.084	44.2
640.415	44.18
640.746	44.27
641.077	44.25
641.407	44.29
641.738	44.3
642.069	44.35
642.4	44.35
642.73	44.37
643.061	44.4
643.392	44.45
643.722	44.58
644.053	44.64
644.383	44.65
644.713	44.72
645.044	44.68
645.374	44.73
645.704	44.78
646.034	44.8
646.365	44.83
646.695	44.87
647.025	44.9
647.355	44.97
647.685	45.03
648.015	45.08
648.344	45.1
648.674	45.08
649.004	45.15
649.334	45.23
649.663	45.27
