Data from pcis_p_m4_p5_Reflection_2.txt Node
Date: Wed Jul 12 18:00:05 ART 2017
User: rodoncho
Spectrometer: USB2E3644
Trigger mode: 4
Integration Time (sec): 6.000000E-2
Scans to average: 10
Electric dark correction enabled: true
Nonlinearity correction enabled: false
Boxcar width: 10
XAxis mode: Wavelengths
Number of Pixels in Spectrum: 2048
>>>>>Begin Spectral Data<<<<<
178.315	-45.67
178.696	-22.22
179.076	0.46
179.457	8.1
179.838	-1.78
180.218	-37.44
180.599	-130.35
180.979	-160
181.36	-302.56
181.74	-97.85
182.121	-24.24
182.501	137.63
182.881	192.98
183.262	390.8
183.642	-145.19
184.022	-7.71
184.402	31.92
184.783	51.42
185.163	60.32
185.543	72.06
185.923	80.32
186.303	75.24
186.683	80.77
187.063	97.85
187.443	105.35
187.823	105.02
188.203	103.2
188.583	108.29
188.963	122.84
189.343	131.87
189.723	135.55
190.102	136.79
190.482	137.47
190.862	138.31
191.242	138.47
191.621	139.76
192.001	145.79
192.38	137.33
192.76	134.99
193.14	137.4
193.519	133.72
193.898	126.56
194.278	123.25
194.657	122.52
195.037	119.62
195.416	117.52
195.795	118.68
196.175	120.73
196.554	117.72
196.933	112.13
197.312	108.46
197.692	108.8
198.071	111.2
198.45	110.33
198.829	111.16
199.208	111.31
199.587	112.83
199.966	110.95
200.345	112.22
200.724	112.6
201.103	111.33
201.482	113.62
201.86	116.74
202.239	118.38
202.618	119.36
202.997	120.93
203.375	120.73
203.754	119.75
204.133	119.44
204.511	121.06
204.89	123.51
205.269	124.9
205.647	123.61
206.026	122.01
206.404	121.35
206.782	120.7
207.161	120.18
207.539	119.21
207.918	118.42
208.296	119.85
208.674	119.87
209.052	119.13
209.431	116.72
209.809	115.91
210.187	115.05
210.565	113.22
210.943	111.2
211.321	112
211.699	113.11
212.077	112.32
212.455	110.62
212.833	108.42
213.211	107.14
213.589	107.52
213.967	107.28
214.345	108.16
214.722	107.95
215.1	106.05
215.478	105.74
215.855	105.86
216.233	104.43
216.611	105.27
216.988	107.44
217.366	108.02
217.743	106.62
218.121	107.42
218.498	108.33
218.876	108.14
219.253	106.91
219.631	105.92
220.008	106.71
220.385	107.81
220.762	109.18
221.14	109.75
221.517	109.42
221.894	109.75
222.271	110.27
222.648	112.01
223.025	114.26
223.402	114.18
223.78	113.9
224.157	113.94
224.533	113.89
224.91	113.47
225.287	114.3
225.664	116.08
226.041	116.08
226.418	115.43
226.795	115.43
227.171	117.6
227.548	118.83
227.925	119.93
228.301	120.82
228.678	122.55
229.055	123.76
229.431	124.29
229.808	124.24
230.184	123.45
230.561	122.11
230.937	120.2
231.313	120.29
231.69	121.58
232.066	121.49
232.442	120.7
232.819	119.5
233.195	119.13
233.571	119.21
233.947	120.32
234.323	120.95
234.699	121.65
235.075	120.31
235.451	119.23
235.827	117.92
236.203	118.46
236.579	119.97
236.955	121.1
237.331	123.18
237.707	125.45
238.083	127.14
238.459	131.12
238.834	138.69
239.21	144.93
239.586	150.54
239.961	154.87
240.337	159.13
240.713	162.98
241.088	168.61
241.464	173.37
241.839	177.51
242.215	185.52
242.59	203.95
242.965	245.08
243.341	327.7
243.716	496.06
244.091	879.42
244.467	1663.56
244.842	7738.21
245.217	-4158.22
245.592	-2252.28
245.967	-1763.09
246.343	-2217.49
246.718	-4272.15
247.093	-3998.27
247.468	-3682.73
247.843	-2489.97
248.218	-1465.39
248.593	-884.34
248.967	-647.28
249.342	-574.42
249.717	-557.77
250.092	-568.75
250.467	-680.42
250.841	-1306.78
251.216	5710.69
251.591	976.27
251.965	566.85
252.34	479.73
252.714	434.05
253.089	411.87
253.463	406.71
253.838	439.18
254.212	484.09
254.587	606.32
254.961	792.61
255.335	1518.2
255.71	-2514.13
256.084	-551.45
256.458	-287.6
256.832	-201.27
257.206	-168.75
257.581	-153.08
257.955	-143.56
258.329	-135.27
258.703	-125.47
259.077	-117.33
259.451	-111.76
259.825	-106.42
260.199	-103.54
260.572	-101.2
260.946	-97.29
261.32	-94.79
261.694	-92.49
262.068	-89.35
262.441	-86.63
262.815	-84.39
263.189	-83.85
263.562	-87.01
263.936	-97.47
264.309	-113.57
264.683	-135.4
265.056	-148.16
265.43	-152.8
265.803	-151.38
266.176	-149.8
266.55	-152.34
266.923	-150.62
267.296	-145.71
267.67	-139.05
268.043	-128.34
268.416	-118.47
268.789	-108.63
269.162	-98.29
269.535	-91.01
269.908	-87.17
270.281	-85.62
270.654	-86.47
271.027	-88.34
271.4	-89.74
271.773	-90.46
272.146	-90.88
272.519	-87.46
272.891	-84.48
273.264	-84.19
273.637	-82.51
274.01	-81.21
274.382	-79.06
274.755	-76.81
275.127	-76.54
275.5	-76.39
275.872	-75.84
276.245	-76.48
276.617	-78.38
276.99	-81.04
277.362	-83.49
277.734	-82.95
278.107	-80.63
278.479	-76.99
278.851	-74.31
279.223	-70.81
279.596	-68.66
279.968	-67.22
280.34	-67.7
280.712	-67.12
281.084	-63.34
281.456	-59.08
281.828	-55.23
282.2	-51.93
282.572	-49.32
282.944	-47.07
283.315	-45.81
283.687	-45.7
284.059	-45.2
284.431	-44.78
284.802	-44.62
285.174	-44.1
285.546	-43.55
285.917	-43.59
286.289	-42.9
286.66	-42.16
287.032	-41.79
287.403	-41.3
287.775	-40.96
288.146	-39.66
288.518	-38.88
288.889	-38.81
289.26	-39.74
289.632	-41
290.003	-42.23
290.374	-43.84
290.745	-44.16
291.116	-43.9
291.487	-42.74
291.858	-41.75
292.229	-40.76
292.6	-39.36
292.971	-37.64
293.342	-35.48
293.713	-33.37
294.084	-32.18
294.455	-31.19
294.826	-30.33
295.196	-30.13
295.567	-29.2
295.938	-29.04
296.308	-29.11
296.679	-28.33
297.05	-27.88
297.42	-27.3
297.791	-25.87
298.161	-24.86
298.532	-24.86
298.902	-24.51
299.272	-24.14
299.643	-23.63
300.013	-23.44
300.383	-22.8
300.754	-22.4
301.124	-22.94
301.494	-23.35
301.864	-23.6
302.234	-24.11
302.604	-24.4
302.974	-24.04
303.344	-24.53
303.714	-24.79
304.084	-24.39
304.454	-24.41
304.824	-23.51
305.194	-22.86
305.563	-22.57
305.933	-21.61
306.303	-20.04
306.673	-19.47
307.042	-18.92
307.412	-17.85
307.781	-16.61
308.151	-15.95
308.521	-15.6
308.89	-15.21
309.259	-14.81
309.629	-14.41
309.998	-13.93
310.368	-13.93
310.737	-13.75
311.106	-13.35
311.475	-12.7
311.845	-12.3
312.214	-11.82
312.583	-11.72
312.952	-11.25
313.321	-11.07
313.69	-11.32
314.059	-11.92
314.428	-11.99
314.797	-12.25
315.166	-13.16
315.535	-13.69
315.904	-13.87
316.272	-14.17
316.641	-14.15
317.01	-14.35
317.379	-14.43
317.747	-14.38
318.116	-14.2
318.484	-14.04
318.853	-13.96
319.221	-13.87
319.59	-13.69
319.958	-13.72
320.327	-13.45
320.695	-13.48
321.063	-13.38
321.432	-12.95
321.8	-12.24
322.168	-11.34
322.536	-10.59
322.905	-9.59
323.273	-8.99
323.641	-8.81
324.009	-8.72
324.377	-8.45
324.745	-7.95
325.113	-7.8
325.481	-7.36
325.849	-6.77
326.216	-6.23
326.584	-5.76
326.952	-5.38
327.32	-4.93
327.687	-4.37
328.055	-3.98
328.423	-3.68
328.79	-3.41
329.158	-3.27
329.525	-2.8
329.893	-2.61
330.26	-2.55
330.628	-2.63
330.995	-2.39
331.362	-1.97
331.73	-1.39
332.097	-1.11
332.464	-0.96
332.831	-0.59
333.199	-0.37
333.566	-0.32
333.933	-0.28
334.3	-0.17
334.667	-0.02
335.034	-0.06
335.401	-0.18
335.768	-0.15
336.135	-0.03
336.502	0.08
336.868	0.33
337.235	0.3
337.602	0.48
337.969	0.82
338.335	1.14
338.702	1.26
339.069	1.44
339.435	1.52
339.802	1.73
340.168	1.91
340.535	2.16
340.901	2.2
341.267	2.45
341.634	2.77
342	3.19
342.366	3.41
342.733	3.7
343.099	4
343.465	4.17
343.831	4.39
344.197	4.58
344.563	4.67
344.929	4.87
345.295	5.03
345.661	5.16
346.027	5.38
346.393	5.54
346.759	5.56
347.125	5.55
347.491	5.58
347.856	5.84
348.222	5.91
348.588	6.07
348.953	6.13
349.319	6.23
349.684	6.19
350.05	6.3
350.415	6.48
350.781	6.59
351.146	6.66
351.512	6.79
351.877	6.85
352.242	6.97
352.608	7.05
352.973	7.1
353.338	7.11
353.703	7.13
354.068	7.19
354.433	7.27
354.798	7.55
355.164	7.71
355.528	7.76
355.893	7.81
356.258	8.04
356.623	8.09
356.988	8.13
357.353	8.34
357.718	8.41
358.082	8.48
358.447	8.43
358.812	8.57
359.176	8.75
359.541	8.84
359.905	8.95
360.27	9.03
360.634	9.1
360.999	9.23
361.363	9.37
361.728	9.44
362.092	9.52
362.456	9.48
362.821	9.49
363.185	9.42
363.549	9.52
363.913	9.52
364.277	9.62
364.641	9.69
365.005	9.65
365.369	9.71
365.733	9.81
366.097	9.96
366.461	9.99
366.825	9.93
367.189	10.04
367.553	10.15
367.916	10.31
368.28	10.41
368.644	10.5
369.007	10.56
369.371	10.62
369.734	10.72
370.098	10.84
370.461	10.94
370.825	11.05
371.188	11.07
371.552	11.17
371.915	11.31
372.278	11.42
372.642	11.55
373.005	11.63
373.368	11.58
373.731	11.64
374.094	11.71
374.457	11.78
374.82	11.85
375.183	11.8
375.546	11.77
375.909	11.83
376.272	11.83
376.635	11.87
376.998	11.87
377.361	11.87
377.723	11.92
378.086	11.96
378.449	12.05
378.811	12.15
379.174	12.16
379.537	12.19
379.899	12.24
380.262	12.27
380.624	12.28
380.987	12.36
381.349	12.44
381.711	12.46
382.074	12.49
382.436	12.56
382.798	12.63
383.16	12.66
383.522	12.68
383.884	12.76
384.247	12.81
384.609	12.9
384.971	12.94
385.333	12.96
385.695	12.98
386.056	12.97
386.418	12.93
386.78	12.98
387.142	12.94
387.504	12.92
387.865	12.9
388.227	12.87
388.589	12.89
388.95	12.87
389.312	12.89
389.673	12.89
390.035	12.81
390.396	12.83
390.758	12.82
391.119	12.79
391.48	12.77
391.842	12.75
392.203	12.73
392.564	12.73
392.925	12.7
393.286	12.71
393.648	12.72
394.009	12.75
394.37	12.67
394.731	12.68
395.092	12.64
395.452	12.59
395.813	12.64
396.174	12.63
396.535	12.61
396.896	12.65
397.257	12.6
397.617	12.64
397.978	12.61
398.338	12.63
398.699	12.68
399.06	12.64
399.42	12.59
399.781	12.58
400.141	12.54
400.501	12.5
400.862	12.49
401.222	12.47
401.582	12.44
401.943	12.47
402.303	12.43
402.663	12.43
403.023	12.45
403.383	12.36
403.743	12.33
404.103	12.32
404.463	12.28
404.823	12.29
405.183	12.26
405.543	12.24
405.903	12.21
406.262	12.14
406.622	12.14
406.982	12.15
407.342	12.12
407.701	12.12
408.061	12.1
408.42	12.05
408.78	12.02
409.139	12.01
409.499	12
409.858	12.01
410.217	12.01
410.577	12
410.936	11.99
411.295	12.01
411.655	11.97
412.014	11.94
412.373	11.88
412.732	11.79
413.091	11.72
413.45	11.68
413.809	11.62
414.168	11.51
414.527	11.41
414.886	11.33
415.245	11.24
415.603	11.16
415.962	11.06
416.321	10.96
416.679	10.86
417.038	10.76
417.397	10.67
417.755	10.57
418.114	10.49
418.472	10.43
418.831	10.35
419.189	10.3
419.547	10.23
419.906	10.17
420.264	10.11
420.622	10.05
420.981	9.99
421.339	9.96
421.697	9.91
422.055	9.87
422.413	9.84
422.771	9.81
423.129	9.79
423.487	9.79
423.845	9.77
424.203	9.77
424.56	9.76
424.918	9.76
425.276	9.77
425.634	9.76
425.991	9.76
426.349	9.76
426.707	9.76
427.064	9.75
427.422	9.76
427.779	9.77
428.137	9.77
428.494	9.79
428.851	9.77
429.209	9.77
429.566	9.76
429.923	9.71
430.28	9.68
430.637	9.65
430.995	9.61
431.352	9.61
431.709	9.6
432.066	9.6
432.423	9.55
432.78	9.52
433.137	9.51
433.493	9.48
433.85	9.47
434.207	9.42
434.564	9.39
434.92	9.35
435.277	9.3
435.634	9.27
435.99	9.22
436.347	9.18
436.703	9.14
437.06	9.09
437.416	9.07
437.773	9.06
438.129	9.02
438.485	9.01
438.841	8.98
439.198	8.95
439.554	8.92
439.91	8.91
440.266	8.88
440.622	8.86
440.978	8.83
441.334	8.79
441.69	8.77
442.046	8.72
442.402	8.67
442.758	8.63
443.113	8.6
443.469	8.57
443.825	8.55
444.181	8.54
444.536	8.54
444.892	8.54
445.247	8.52
445.603	8.52
445.958	8.51
446.314	8.5
446.669	8.5
447.025	8.49
447.38	8.48
447.735	8.48
448.09	8.47
448.446	8.47
448.801	8.45
449.156	8.47
449.511	8.51
449.866	8.54
450.221	8.58
450.576	8.59
450.931	8.59
451.286	8.59
451.641	8.59
451.995	8.56
452.35	8.59
452.705	8.58
453.06	8.59
453.414	8.59
453.769	8.59
454.123	8.55
454.478	8.53
454.832	8.5
455.187	8.46
455.541	8.41
455.896	8.36
456.25	8.31
456.604	8.25
456.958	8.2
457.313	8.17
457.667	8.15
458.021	8.13
458.375	8.15
458.729	8.16
459.083	8.16
459.437	8.16
459.791	8.13
460.145	8.12
460.499	8.12
460.852	8.11
461.206	8.1
461.56	8.1
461.914	8.09
462.267	8.08
462.621	8.08
462.974	8.08
463.328	8.11
463.681	8.14
464.035	8.17
464.388	8.17
464.742	8.18
465.095	8.19
465.448	8.2
465.801	8.18
466.155	8.18
466.508	8.16
466.861	8.15
467.214	8.14
467.567	8.13
467.92	8.1
468.273	8.09
468.626	8.08
468.979	8.08
469.332	8.07
469.684	8.06
470.037	8.05
470.39	8.04
470.743	8.05
471.095	8.05
471.448	8.07
471.8	8.09
472.153	8.1
472.505	8.1
472.858	8.09
473.21	8.1
473.562	8.07
473.915	8.06
474.267	8.06
474.619	8.06
474.971	8.05
475.324	8.05
475.676	8.06
476.028	8.07
476.38	8.07
476.732	8.07
477.084	8.08
477.436	8.08
477.787	8.07
478.139	8.04
478.491	8.01
478.843	7.97
479.195	7.93
479.546	7.86
479.898	7.76
480.249	7.67
480.601	7.6
480.952	7.56
481.304	7.53
481.655	7.51
482.007	7.49
482.358	7.47
482.709	7.45
483.061	7.43
483.412	7.4
483.763	7.38
484.114	7.36
484.465	7.34
484.816	7.32
485.167	7.31
485.518	7.3
485.869	7.29
486.22	7.29
486.571	7.29
486.922	7.3
487.272	7.3
487.623	7.32
487.974	7.32
488.324	7.33
488.675	7.32
489.025	7.33
489.376	7.34
489.726	7.35
490.077	7.36
490.427	7.39
490.778	7.41
491.128	7.43
491.478	7.46
491.828	7.5
492.179	7.53
492.529	7.56
492.879	7.57
493.229	7.58
493.579	7.61
493.929	7.61
494.279	7.61
494.629	7.64
494.979	7.66
495.328	7.69
495.678	7.74
496.028	7.78
496.378	7.79
496.727	7.81
497.077	7.83
497.426	7.84
497.776	7.83
498.125	7.83
498.475	7.84
498.824	7.85
499.174	7.84
499.523	7.84
499.872	7.85
500.221	7.86
500.571	7.87
500.92	7.88
501.269	7.88
501.618	7.9
501.967	7.9
502.316	7.9
502.665	7.92
503.014	7.93
503.363	7.94
503.711	7.94
504.06	7.95
504.409	7.94
504.758	7.93
505.106	7.92
505.455	7.92
505.803	7.91
506.152	7.9
506.5	7.92
506.849	7.92
507.197	7.91
507.546	7.92
507.894	7.92
508.242	7.93
508.59	7.92
508.939	7.92
509.287	7.92
509.635	7.93
509.983	7.94
510.331	7.95
510.679	7.94
511.027	7.95
511.375	7.96
511.723	7.99
512.07	8
512.418	8.03
512.766	8.06
513.114	8.08
513.461	8.13
513.809	8.13
514.156	8.14
514.504	8.17
514.851	8.17
515.199	8.17
515.546	8.17
515.893	8.19
516.241	8.21
516.588	8.21
516.935	8.22
517.282	8.22
517.63	8.22
517.977	8.24
518.324	8.26
518.671	8.27
519.018	8.27
519.365	8.29
519.711	8.28
520.058	8.29
520.405	8.28
520.752	8.28
521.099	8.29
521.445	8.29
521.792	8.29
522.138	8.29
522.485	8.31
522.832	8.32
523.178	8.34
523.524	8.35
523.871	8.36
524.217	8.37
524.563	8.35
524.91	8.32
525.256	8.28
525.602	8.25
525.948	8.22
526.294	8.21
526.64	8.19
526.986	8.19
527.332	8.19
527.678	8.19
528.024	8.19
528.37	8.2
528.716	8.19
529.061	8.2
529.407	8.21
529.753	8.2
530.098	8.19
530.444	8.19
530.789	8.18
531.135	8.19
531.48	8.21
531.826	8.23
532.171	8.26
532.516	8.3
532.862	8.34
533.207	8.38
533.552	8.41
533.897	8.44
534.242	8.47
534.587	8.5
534.932	8.52
535.277	8.54
535.622	8.55
535.967	8.59
536.312	8.62
536.657	8.64
537.001	8.69
537.346	8.74
537.691	8.77
538.035	8.78
538.38	8.77
538.724	8.78
539.069	8.79
539.413	8.8
539.758	8.8
540.102	8.83
540.446	8.84
540.791	8.85
541.135	8.87
541.479	8.89
541.823	8.9
542.167	8.91
542.512	8.91
542.856	8.92
543.2	8.93
543.543	8.94
543.887	8.96
544.231	8.97
544.575	8.99
544.919	9.01
545.262	9.07
545.606	9.13
545.95	9.16
546.293	9.18
546.637	9.21
546.98	9.27
547.324	9.3
547.667	9.36
548.011	9.38
548.354	9.4
548.697	9.42
549.04	9.47
549.384	9.51
549.727	9.57
550.07	9.62
550.413	9.64
550.756	9.68
551.099	9.72
551.442	9.76
551.785	9.79
552.128	9.86
552.47	9.89
552.813	9.94
553.156	9.96
553.499	10.03
553.841	10.07
554.184	10.1
554.526	10.15
554.869	10.16
555.211	10.19
555.554	10.26
555.896	10.31
556.238	10.34
556.581	10.38
556.923	10.43
557.265	10.48
557.607	10.53
557.949	10.6
558.291	10.64
558.633	10.69
558.975	10.77
559.317	10.83
559.659	10.9
560.001	10.98
560.343	11.05
560.685	11.11
561.026	11.19
561.368	11.22
561.71	11.27
562.051	11.36
562.393	11.45
562.734	11.53
563.076	11.62
563.417	11.7
563.759	11.77
564.1	11.85
564.441	11.95
564.782	12.02
565.124	12.1
565.465	12.22
565.806	12.32
566.147	12.4
566.488	12.5
566.829	12.58
567.17	12.66
567.511	12.77
567.851	12.85
568.192	12.97
568.533	13.09
568.874	13.24
569.214	13.39
569.555	13.5
569.895	13.61
570.236	13.77
570.576	13.9
570.917	14.06
571.257	14.21
571.598	14.34
571.938	14.49
572.278	14.63
572.618	14.78
572.959	14.91
573.299	15.04
573.639	15.16
573.979	15.32
574.319	15.45
574.659	15.57
574.999	15.71
575.339	15.85
575.678	16.03
576.018	16.17
576.358	16.31
576.698	16.47
577.037	16.66
577.377	16.79
577.716	16.97
578.056	17.16
578.395	17.3
578.735	17.47
579.074	17.67
579.413	17.87
579.753	18.04
580.092	18.22
580.431	18.45
580.77	18.64
581.109	18.81
581.448	19.03
581.787	19.23
582.126	19.46
582.465	19.65
582.804	19.87
583.143	20.07
583.482	20.29
583.82	20.53
584.159	20.72
584.498	20.92
584.836	21.13
585.175	21.37
585.514	21.61
585.852	21.87
586.19	22.08
586.529	22.32
586.867	22.53
587.205	22.76
587.544	22.97
587.882	23.18
588.22	23.4
588.558	23.6
588.896	23.82
589.234	24.01
589.572	24.19
589.91	24.36
590.248	24.58
590.586	24.73
590.924	24.93
591.262	25.14
591.599	25.34
591.937	25.54
592.275	25.72
592.612	25.91
592.95	26.08
593.287	26.3
593.625	26.52
593.962	26.79
594.299	26.98
594.637	27.18
594.974	27.34
595.311	27.54
595.648	27.7
595.985	27.86
596.322	28.04
596.659	28.2
596.996	28.33
597.333	28.48
597.67	28.64
598.007	28.76
598.344	28.91
598.681	29.04
599.017	29.13
599.354	29.27
599.691	29.41
600.027	29.54
600.364	29.73
600.7	29.89
601.037	30.07
601.373	30.28
601.71	30.45
602.046	30.62
602.382	30.76
602.718	30.88
603.054	31
603.391	31.1
603.727	31.22
604.063	31.31
604.399	31.38
604.735	31.47
605.071	31.57
605.406	31.66
605.742	31.74
606.078	31.93
606.414	32.05
606.749	32.17
607.085	32.31
607.421	32.37
607.756	32.46
608.092	32.54
608.427	32.59
608.762	32.65
609.098	32.72
609.433	32.78
609.768	32.84
610.104	32.88
610.439	32.91
610.774	32.97
611.109	33.09
611.444	33.15
611.779	33.24
612.114	33.31
612.449	33.4
612.784	33.46
613.118	33.44
613.453	33.49
613.788	33.5
614.123	33.54
614.457	33.62
614.792	33.69
615.126	33.71
615.461	33.78
615.795	33.88
616.13	33.94
616.464	33.97
616.798	34.01
617.132	34.09
617.467	34.21
617.801	34.24
618.135	34.26
618.469	34.3
618.803	34.34
619.137	34.34
619.471	34.38
619.805	34.47
620.139	34.52
620.472	34.51
620.806	34.59
621.14	34.61
621.473	34.62
621.807	34.63
622.141	34.7
622.474	34.71
622.808	34.72
623.141	34.79
623.474	34.88
623.808	34.93
624.141	35.04
624.474	35.05
624.807	35.04
625.141	35.11
625.474	35.18
625.807	35.19
626.14	35.26
626.473	35.3
626.806	35.33
627.138	35.36
627.471	35.42
627.804	35.45
628.137	35.48
628.469	35.52
628.802	35.52
629.135	35.57
629.467	35.62
629.8	35.61
630.132	35.59
630.465	35.59
630.797	35.62
631.129	35.63
631.461	35.66
631.794	35.75
632.126	35.75
632.458	35.79
632.79	35.81
633.122	35.81
633.454	35.83
633.786	35.81
634.118	35.77
634.45	35.8
634.781	35.8
635.113	35.81
635.445	35.82
635.777	35.85
636.108	35.87
636.44	35.89
636.771	35.92
637.103	35.97
637.434	35.93
637.765	35.91
638.097	35.88
638.428	35.93
638.759	35.94
639.09	35.91
639.422	35.9
639.753	35.93
640.084	35.97
640.415	35.96
640.746	36.02
641.077	36.12
641.407	36.1
641.738	36.06
642.069	36.04
642.4	36.06
642.73	36.1
643.061	36.07
643.392	36.1
643.722	36.11
644.053	36.05
644.383	36.09
644.713	36.15
645.044	36.19
645.374	36.22
645.704	36.23
646.034	36.29
646.365	36.28
646.695	36.29
647.025	36.29
647.355	36.31
647.685	36.28
648.015	36.25
648.344	36.29
648.674	36.4
649.004	36.53
649.334	36.58
649.663	36.6
649.993	36.59
650.323	36.57
650.652	36.6
650.982	36.67
651.311	36.67
651.64	36.64
651.97	36.61
