Data from pcis_p_m4_p6_Reflection_4.txt Node
Date: Wed Jul 12 18:01:11 ART 2017
User: rodoncho
Spectrometer: USB2E3644
Trigger mode: 4
Integration Time (sec): 6.000000E-2
Scans to average: 10
Electric dark correction enabled: true
Nonlinearity correction enabled: false
Boxcar width: 10
XAxis mode: Wavelengths
Number of Pixels in Spectrum: 2048
>>>>>Begin Spectral Data<<<<<
178.315	81.58
178.696	80
179.076	126.33
179.457	105.74
179.838	65.93
180.218	60.75
180.599	69.35
180.979	0
181.36	-227.5
181.74	7.14
182.121	24.29
182.501	111.25
182.881	128.2
183.262	103.96
183.642	19.53
184.022	-471.05
184.402	234.82
184.783	170.26
185.163	152.31
185.543	121.9
185.923	122.33
186.303	112.64
186.683	111.1
187.063	116.01
187.443	111.53
187.823	104.78
188.203	104.72
188.583	102.05
188.963	101.98
189.343	107.01
189.723	105.02
190.102	108.86
190.482	109.89
190.862	113.36
191.242	110.49
191.621	111.72
192.001	111.51
192.38	114.52
192.76	112.49
193.14	112.34
193.519	115.01
193.898	114.43
194.278	114.64
194.657	113.1
195.037	113.27
195.416	113.42
195.795	116.42
196.175	116.22
196.554	119.54
196.933	120.66
197.312	117.75
197.692	118.45
198.071	117.27
198.45	115.92
198.829	114.39
199.208	112.68
199.587	109.87
199.966	109.8
200.345	109.62
200.724	110.42
201.103	110.51
201.482	108.74
201.86	109.19
202.239	108.6
202.618	107.9
202.997	107.91
203.375	108.15
203.754	106.73
204.133	107.74
204.511	107.63
204.89	107.37
205.269	108.42
205.647	108.59
206.026	109.69
206.404	110.62
206.782	111.25
207.161	112.58
207.539	114.71
207.918	115.36
208.296	114.94
208.674	114.34
209.052	116.54
209.431	117.24
209.809	116.85
210.187	118.03
210.565	119.3
210.943	119.63
211.321	118.88
211.699	118.78
212.077	118.62
212.455	118.84
212.833	120.05
213.211	119.28
213.589	118.77
213.967	118.45
214.345	118.96
214.722	119.78
215.1	119.08
215.478	116.66
215.855	114.55
216.233	114.77
216.611	115.21
216.988	112.66
217.366	112.28
217.743	110.71
218.121	111.64
218.498	112.04
218.876	112.02
219.253	113.22
219.631	113.68
220.008	112.03
220.385	111.8
220.762	110.85
221.14	112.15
221.517	111.86
221.894	111.25
222.271	111.15
222.648	111.02
223.025	112.56
223.402	114.28
223.78	116.06
224.157	115.53
224.533	115.86
224.91	116.63
225.287	116.5
225.664	117.55
226.041	117.12
226.418	117.18
226.795	116.26
227.171	115.84
227.548	115.87
227.925	118.9
228.301	119.87
228.678	120.11
229.055	119.14
229.431	118.73
229.808	118.46
230.184	117.73
230.561	117.18
230.937	117.26
231.313	116.92
231.69	117.06
232.066	117.64
232.442	117.31
232.819	116.99
233.195	117.54
233.571	117.96
233.947	116.84
234.323	117.16
234.699	117.6
235.075	117.67
235.451	118.63
235.827	117.95
236.203	118.04
236.579	119.29
236.955	122.13
237.331	125.33
237.707	128.61
238.083	132.16
238.459	135.92
238.834	141.7
239.21	147.69
239.586	152.37
239.961	158.93
240.337	163.39
240.713	168.42
241.088	170.41
241.464	172.82
241.839	179.55
242.215	185.96
242.59	201.77
242.965	234.26
243.341	297.6
243.716	398.67
244.091	599.94
244.467	930.4
244.842	1544.94
245.217	3561.07
245.592	8908.04
245.967	-71264.29
246.343	-49765
246.718	7013.38
247.093	8800.89
247.468	98030
247.843	-11350
248.218	-2373.41
248.593	-1199.13
248.967	-759.38
249.342	-615.24
249.717	-591.56
250.092	-588.68
250.467	-636.89
250.841	-910.56
251.216	-3653.76
251.591	2240.14
251.965	853.2
252.34	611.48
252.714	543.96
253.089	482.69
253.463	473.41
253.838	492.18
254.212	515.2
254.587	595.34
254.961	808.39
255.335	1692.47
255.71	-2595.6
256.084	-571.16
256.458	-305.61
256.832	-217.92
257.206	-183.22
257.581	-168.81
257.955	-158.68
258.329	-148.37
258.703	-139.43
259.077	-131.35
259.451	-125.58
259.825	-119.07
260.199	-115.5
260.572	-111.96
260.946	-109
261.32	-106.54
261.694	-103.51
262.068	-101.74
262.441	-99.5
262.815	-99.43
263.189	-100.58
263.562	-107.4
263.936	-123.7
264.309	-149.25
264.683	-177.36
265.056	-197.25
265.43	-201.96
265.803	-196.38
266.176	-191.39
266.55	-186.56
266.923	-181.92
267.296	-172.66
267.67	-161.57
268.043	-147.41
268.416	-136.71
268.789	-123.18
269.162	-109.76
269.535	-102.16
269.908	-95.89
270.281	-93.49
270.654	-93.64
271.027	-95.65
271.4	-96.31
271.773	-96.49
272.146	-95.56
272.519	-91.98
272.891	-88.97
273.264	-87.62
273.637	-86.72
274.01	-86.89
274.382	-85.08
274.755	-83.07
275.127	-83.13
275.5	-83.83
275.872	-83.87
276.245	-84.37
276.617	-86.06
276.99	-90.68
277.362	-93.82
277.734	-95.52
278.107	-94.25
278.479	-89.66
278.851	-85.33
279.223	-82.57
279.596	-80.39
279.968	-78.8
280.34	-78.75
280.712	-77.13
281.084	-73.05
281.456	-67.65
281.828	-62.33
282.2	-58.33
282.572	-55.29
282.944	-52.93
283.315	-51.57
283.687	-51.12
284.059	-50.87
284.431	-49.77
284.802	-48.22
285.174	-46.61
285.546	-45.27
285.917	-44.99
286.289	-44.24
286.66	-42.89
287.032	-42.08
287.403	-41.05
287.775	-40.34
288.146	-39.9
288.518	-39.77
288.889	-39.82
289.26	-41.24
289.632	-42.57
290.003	-44.18
290.374	-45.55
290.745	-46.01
291.116	-46.26
291.487	-45.28
291.858	-43.8
292.229	-43.03
292.6	-41.94
292.971	-40.68
293.342	-38.9
293.713	-36.74
294.084	-35.55
294.455	-34.88
294.826	-33.97
295.196	-33.68
295.567	-33.37
295.938	-33.33
296.308	-33.5
296.679	-32.84
297.05	-31.84
297.42	-31.24
297.791	-30.18
298.161	-29.11
298.532	-28.59
298.902	-27.9
299.272	-27.15
299.643	-26.51
300.013	-26.31
300.383	-25.67
300.754	-25.28
301.124	-25.06
301.494	-24.82
301.864	-24.57
302.234	-24.49
302.604	-24.69
302.974	-25.09
303.344	-25.32
303.714	-25.17
304.084	-23.94
304.454	-24.06
304.824	-23.36
305.194	-22.43
305.563	-21.68
305.933	-20.81
306.303	-19.33
306.673	-18.64
307.042	-17.97
307.412	-17.29
307.781	-16.03
308.151	-15.25
308.521	-14.59
308.89	-14.33
309.259	-13.94
309.629	-13.68
309.998	-13.67
310.368	-13.64
310.737	-13.34
311.106	-13.04
311.475	-12.45
311.845	-12.46
312.214	-11.79
312.583	-11.49
312.952	-11.31
313.321	-11.18
313.69	-11.33
314.059	-11.88
314.428	-11.79
314.797	-12.16
315.166	-12.79
315.535	-13.67
315.904	-14.58
316.272	-15.24
316.641	-15.62
317.01	-15.89
317.379	-16.27
317.747	-16.04
318.116	-15.43
318.484	-14.76
318.853	-14.09
319.221	-13.79
319.59	-13.3
319.958	-13.13
320.327	-12.91
320.695	-12.65
321.063	-12.36
321.432	-11.59
321.8	-10.74
322.168	-9.78
322.536	-8.99
322.905	-8.08
323.273	-7.45
323.641	-6.86
324.009	-6.57
324.377	-5.94
324.745	-5.68
325.113	-5.14
325.481	-4.54
325.849	-4.04
326.216	-3.49
326.584	-3.12
326.952	-2.95
327.32	-2.7
327.687	-2.53
328.055	-2.31
328.423	-2.01
328.79	-1.71
329.158	-1.8
329.525	-1.65
329.893	-1.75
330.26	-1.66
330.628	-1.76
330.995	-1.39
331.362	-0.98
331.73	-0.35
332.097	-0.21
332.464	0.14
332.831	0.42
333.199	0.5
333.566	0.59
333.933	0.49
334.3	0.5
334.667	0.79
335.034	1.08
335.401	1.2
335.768	1.3
336.135	1.46
336.502	1.4
336.868	1.79
337.235	2
337.602	2.45
337.969	2.74
338.335	3.2
338.702	3.35
339.069	3.56
339.435	3.74
339.802	3.91
340.168	4.27
340.535	4.44
340.901	4.57
341.267	4.65
341.634	4.97
342	5.28
342.366	5.38
342.733	5.62
343.099	5.95
343.465	6.25
343.831	6.49
344.197	6.7
344.563	6.8
344.929	6.93
345.295	7.02
345.661	7.29
346.027	7.4
346.393	7.6
346.759	7.6
347.125	7.67
347.491	7.94
347.856	7.94
348.222	7.98
348.588	8.25
348.953	8.5
349.319	8.68
349.684	8.72
350.05	8.92
350.415	9.04
350.781	9.16
351.146	9.38
351.512	9.45
351.877	9.73
352.242	9.86
352.608	10
352.973	10.07
353.338	10.09
353.703	10.18
354.068	10.34
354.433	10.54
354.798	10.76
355.164	10.75
355.528	10.79
355.893	10.95
356.258	11.07
356.623	11.07
356.988	11.09
357.353	11.18
357.718	11.28
358.082	11.41
358.447	11.47
358.812	11.49
359.176	11.58
359.541	11.52
359.905	11.6
360.27	11.63
360.634	11.73
360.999	11.83
361.363	11.94
361.728	11.95
362.092	11.99
362.456	11.91
362.821	12.06
363.185	12.13
363.549	12.2
363.913	12.24
364.277	12.34
364.641	12.41
365.005	12.5
365.369	12.62
365.733	12.68
366.097	12.81
366.461	12.87
366.825	12.92
367.189	13.09
367.553	13.21
367.916	13.37
368.28	13.45
368.644	13.58
369.007	13.75
369.371	13.85
369.734	13.9
370.098	14.09
370.461	14.17
370.825	14.26
371.188	14.37
371.552	14.4
371.915	14.48
372.278	14.72
372.642	14.87
373.005	14.93
373.368	14.96
373.731	14.99
374.094	15.02
374.457	15.08
374.82	15.15
375.183	15.19
375.546	15.19
375.909	15.23
376.272	15.27
376.635	15.22
376.998	15.25
377.361	15.32
377.723	15.31
378.086	15.39
378.449	15.49
378.811	15.56
379.174	15.6
379.537	15.69
379.899	15.69
380.262	15.72
380.624	15.73
380.987	15.79
381.349	15.86
381.711	15.92
382.074	16
382.436	16.02
382.798	16.03
383.16	16
383.522	16.03
383.884	16.06
384.247	16.09
384.609	16.14
384.971	16.13
385.333	16.13
385.695	16.09
386.056	16.1
386.418	16.07
386.78	16.1
387.142	16.09
387.504	16.07
387.865	16.03
388.227	16.06
388.589	16.06
388.95	16.02
389.312	15.99
389.673	15.96
390.035	15.94
390.396	15.88
390.758	15.95
391.119	15.97
391.48	15.94
391.842	15.93
392.203	15.9
392.564	15.88
392.925	15.86
393.286	15.86
393.648	15.89
394.009	15.88
394.37	15.82
394.731	15.8
395.092	15.74
395.452	15.71
395.813	15.69
396.174	15.68
396.535	15.66
396.896	15.68
397.257	15.69
397.617	15.71
397.978	15.76
398.338	15.76
398.699	15.72
399.06	15.69
399.42	15.63
399.781	15.61
400.141	15.58
400.501	15.56
400.862	15.53
401.222	15.43
401.582	15.41
401.943	15.41
402.303	15.4
402.663	15.41
403.023	15.39
403.383	15.34
403.743	15.29
404.103	15.31
404.463	15.28
404.823	15.22
405.183	15.18
405.543	15.15
405.903	15.09
406.262	15.03
406.622	14.99
406.982	14.99
407.342	14.97
407.701	14.92
408.061	14.9
408.42	14.85
408.78	14.81
409.139	14.78
409.499	14.76
409.858	14.74
410.217	14.72
410.577	14.66
410.936	14.64
411.295	14.64
411.655	14.56
412.014	14.52
412.373	14.45
412.732	14.34
413.091	14.26
413.45	14.19
413.809	14.13
414.168	14.06
414.527	13.94
414.886	13.84
415.245	13.78
415.603	13.68
415.962	13.57
416.321	13.49
416.679	13.38
417.038	13.27
417.397	13.12
417.755	13
418.114	12.92
418.472	12.85
418.831	12.76
419.189	12.69
419.547	12.61
419.906	12.56
420.264	12.5
420.622	12.43
420.981	12.34
421.339	12.28
421.697	12.2
422.055	12.15
422.413	12.1
422.771	12.06
423.129	12.03
423.487	12.01
423.845	11.97
424.203	11.97
424.56	11.95
424.918	11.95
425.276	11.96
425.634	11.94
425.991	11.89
426.349	11.87
426.707	11.84
427.064	11.8
427.422	11.78
427.779	11.76
428.137	11.74
428.494	11.74
428.851	11.72
429.209	11.69
429.566	11.67
429.923	11.6
430.28	11.56
430.637	11.52
430.995	11.5
431.352	11.47
431.709	11.42
432.066	11.38
432.423	11.34
432.78	11.3
433.137	11.27
433.493	11.26
433.85	11.27
434.207	11.23
434.564	11.19
434.92	11.14
435.277	11.09
435.634	11.03
435.99	10.99
436.347	10.95
436.703	10.89
437.06	10.86
437.416	10.83
437.773	10.79
438.129	10.75
438.485	10.72
438.841	10.68
439.198	10.65
439.554	10.63
439.91	10.62
440.266	10.59
440.622	10.56
440.978	10.52
441.334	10.45
441.69	10.4
442.046	10.36
442.402	10.3
442.758	10.23
443.113	10.19
443.469	10.14
443.825	10.11
444.181	10.08
444.536	10.05
444.892	10.03
445.247	10
445.603	9.98
445.958	9.96
446.314	9.94
446.669	9.92
447.025	9.89
447.38	9.85
447.735	9.83
448.09	9.79
448.446	9.77
448.801	9.76
449.156	9.76
449.511	9.75
449.866	9.77
450.221	9.79
450.576	9.79
450.931	9.79
451.286	9.76
451.641	9.76
451.995	9.74
452.35	9.75
452.705	9.72
453.06	9.71
453.414	9.72
453.769	9.72
454.123	9.69
454.478	9.67
454.832	9.65
455.187	9.6
455.541	9.56
455.896	9.52
456.25	9.48
456.604	9.42
456.958	9.38
457.313	9.31
457.667	9.3
458.021	9.28
458.375	9.27
458.729	9.28
459.083	9.29
459.437	9.29
459.791	9.27
460.145	9.27
460.499	9.27
460.852	9.25
461.206	9.25
461.56	9.25
461.914	9.26
462.267	9.25
462.621	9.27
462.974	9.3
463.328	9.3
463.681	9.32
464.035	9.35
464.388	9.38
464.742	9.41
465.095	9.42
465.448	9.44
465.801	9.45
466.155	9.45
466.508	9.44
466.861	9.42
467.214	9.42
467.567	9.43
467.92	9.41
468.273	9.41
468.626	9.37
468.979	9.36
469.332	9.34
469.684	9.34
470.037	9.35
470.39	9.34
470.743	9.35
471.095	9.35
471.448	9.37
471.8	9.36
472.153	9.38
472.505	9.38
472.858	9.37
473.21	9.36
473.562	9.33
473.915	9.33
474.267	9.31
474.619	9.31
474.971	9.28
475.324	9.25
475.676	9.21
476.028	9.2
476.38	9.19
476.732	9.18
477.084	9.17
477.436	9.14
477.787	9.11
478.139	9.09
478.491	9.08
478.843	9.04
479.195	9
479.546	8.93
479.898	8.84
480.249	8.75
480.601	8.7
480.952	8.66
481.304	8.61
481.655	8.59
482.007	8.56
482.358	8.56
482.709	8.55
483.061	8.55
483.412	8.54
483.763	8.51
484.114	8.49
484.465	8.48
484.816	8.48
485.167	8.47
485.518	8.46
485.869	8.45
486.22	8.46
486.571	8.47
486.922	8.47
487.272	8.49
487.623	8.51
487.974	8.53
488.324	8.54
488.675	8.57
489.025	8.59
489.376	8.6
489.726	8.61
490.077	8.63
490.427	8.65
490.778	8.67
491.128	8.72
491.478	8.77
491.828	8.81
492.179	8.85
492.529	8.88
492.879	8.92
493.229	8.95
493.579	8.97
493.929	8.98
494.279	9
494.629	9.03
494.979	9.06
495.328	9.1
495.678	9.14
496.028	9.2
496.378	9.24
496.727	9.27
497.077	9.32
497.426	9.36
497.776	9.37
498.125	9.4
498.475	9.42
498.824	9.44
499.174	9.45
499.523	9.47
499.872	9.48
500.221	9.5
500.571	9.52
500.92	9.53
501.269	9.54
501.618	9.57
501.967	9.6
502.316	9.63
502.665	9.65
503.014	9.68
503.363	9.71
503.711	9.73
504.06	9.73
504.409	9.73
504.758	9.73
505.106	9.75
505.455	9.74
505.803	9.75
506.152	9.73
506.5	9.74
506.849	9.76
507.197	9.79
507.546	9.82
507.894	9.84
508.242	9.86
508.59	9.88
508.939	9.89
509.287	9.88
509.635	9.89
509.983	9.91
510.331	9.91
510.679	9.91
511.027	9.92
511.375	9.95
511.723	9.99
512.07	9.99
512.418	10.03
512.766	10.06
513.114	10.09
513.461	10.11
513.809	10.12
514.156	10.14
514.504	10.16
514.851	10.18
515.199	10.21
515.546	10.23
515.893	10.24
516.241	10.27
516.588	10.29
516.935	10.31
517.282	10.33
517.63	10.36
517.977	10.38
518.324	10.41
518.671	10.43
519.018	10.43
519.365	10.47
519.711	10.49
520.058	10.49
520.405	10.5
520.752	10.53
521.099	10.56
521.445	10.57
521.792	10.58
522.138	10.59
522.485	10.62
522.832	10.65
523.178	10.69
523.524	10.73
523.871	10.76
524.217	10.78
524.563	10.77
524.91	10.78
525.256	10.77
525.602	10.76
525.948	10.74
526.294	10.73
526.64	10.73
526.986	10.74
527.332	10.75
527.678	10.77
528.024	10.78
528.37	10.81
528.716	10.82
529.061	10.85
529.407	10.86
529.753	10.86
530.098	10.87
530.444	10.88
530.789	10.88
531.135	10.9
531.48	10.91
531.826	10.95
532.171	11
532.516	11.04
532.862	11.1
533.207	11.17
533.552	11.25
533.897	11.28
534.242	11.31
534.587	11.34
534.932	11.38
535.277	11.4
535.622	11.41
535.967	11.44
536.312	11.47
536.657	11.51
537.001	11.58
537.346	11.64
537.691	11.71
538.035	11.77
538.38	11.82
538.724	11.86
539.069	11.88
539.413	11.92
539.758	11.95
540.102	11.98
540.446	12
540.791	12.02
541.135	12.08
541.479	12.13
541.823	12.16
542.167	12.18
542.512	12.21
542.856	12.23
543.2	12.26
543.543	12.3
543.887	12.34
544.231	12.39
544.575	12.44
544.919	12.48
545.262	12.54
545.606	12.6
545.95	12.68
546.293	12.76
546.637	12.83
546.98	12.92
547.324	12.99
547.667	13.08
548.011	13.15
548.354	13.21
548.697	13.27
549.04	13.36
549.384	13.44
549.727	13.53
550.07	13.64
550.413	13.71
550.756	13.81
551.099	13.9
551.442	13.98
551.785	14.08
552.128	14.18
552.47	14.25
552.813	14.34
553.156	14.39
553.499	14.46
553.841	14.52
554.184	14.6
554.526	14.67
554.869	14.72
555.211	14.8
555.554	14.86
555.896	14.93
556.238	15.01
556.581	15.09
556.923	15.21
557.265	15.31
557.607	15.43
557.949	15.52
558.291	15.62
558.633	15.72
558.975	15.79
559.317	15.91
559.659	16.05
560.001	16.15
560.343	16.27
560.685	16.38
561.026	16.48
561.368	16.57
561.71	16.68
562.051	16.82
562.393	16.99
562.734	17.1
563.076	17.27
563.417	17.42
563.759	17.58
564.1	17.7
564.441	17.84
564.782	17.98
565.124	18.1
565.465	18.25
565.806	18.4
566.147	18.56
566.488	18.7
566.829	18.83
567.17	18.98
567.511	19.13
567.851	19.28
568.192	19.47
568.533	19.65
568.874	19.86
569.214	20.04
569.555	20.22
569.895	20.46
570.236	20.64
570.576	20.82
570.917	21
571.257	21.19
571.598	21.37
571.938	21.55
572.278	21.73
572.618	21.9
572.959	22.05
573.299	22.21
573.639	22.37
573.979	22.53
574.319	22.69
574.659	22.88
574.999	23.07
575.339	23.25
575.678	23.42
576.018	23.56
576.358	23.73
576.698	23.91
577.037	24.08
577.377	24.24
577.716	24.44
578.056	24.64
578.395	24.82
578.735	25.03
579.074	25.22
579.413	25.41
579.753	25.62
580.092	25.83
580.431	26.02
580.77	26.23
581.109	26.43
581.448	26.64
581.787	26.8
582.126	26.96
582.465	27.18
582.804	27.35
583.143	27.61
583.482	27.8
583.82	27.95
584.159	28.16
584.498	28.36
584.836	28.55
585.175	28.72
585.514	28.96
585.852	29.14
586.19	29.35
586.529	29.58
586.867	29.82
587.205	29.99
587.544	30.2
587.882	30.36
588.22	30.57
588.558	30.76
588.896	30.95
589.234	31.11
589.572	31.25
589.91	31.43
590.248	31.55
590.586	31.73
590.924	31.92
591.262	32.06
591.599	32.23
591.937	32.36
592.275	32.51
592.612	32.65
592.95	32.81
593.287	33
593.625	33.22
593.962	33.37
594.299	33.56
594.637	33.7
594.974	33.85
595.311	33.94
595.648	34.03
595.985	34.16
596.322	34.3
596.659	34.4
596.996	34.52
597.333	34.6
597.67	34.71
598.007	34.79
598.344	34.9
598.681	35.01
599.017	35.11
599.354	35.23
599.691	35.29
600.027	35.41
600.364	35.51
600.7	35.59
601.037	35.71
601.373	35.84
601.71	36
602.046	36.14
602.382	36.26
602.718	36.42
603.054	36.46
603.391	36.52
603.727	36.62
604.063	36.7
604.399	36.78
604.735	36.86
605.071	36.98
605.406	37.04
605.742	37.1
606.078	37.2
606.414	37.26
606.749	37.35
607.085	37.4
607.421	37.5
607.756	37.56
608.092	37.59
608.427	37.58
608.762	37.57
609.098	37.57
609.433	37.58
609.768	37.58
610.104	37.63
610.439	37.69
610.774	37.7
611.109	37.75
611.444	37.8
611.779	37.8
612.114	37.78
612.449	37.82
612.784	37.81
613.118	37.79
613.453	37.83
613.788	37.85
614.123	37.85
614.457	37.82
614.792	37.87
615.126	37.89
615.461	37.96
615.795	38.02
616.13	38.13
616.464	38.2
616.798	38.24
617.132	38.27
617.467	38.27
617.801	38.27
618.135	38.33
618.469	38.34
618.803	38.32
619.137	38.37
619.471	38.39
619.805	38.49
620.139	38.54
620.472	38.57
620.806	38.6
621.14	38.65
621.473	38.72
621.807	38.74
622.141	38.79
622.474	38.81
622.808	38.83
623.141	38.86
623.474	38.9
623.808	38.96
624.141	38.98
624.474	39.03
624.807	39.09
625.141	39.07
625.474	39.11
625.807	39.15
626.14	39.18
626.473	39.2
626.806	39.2
627.138	39.24
627.471	39.24
627.804	39.25
628.137	39.28
628.469	39.27
628.802	39.26
629.135	39.28
629.467	39.34
629.8	39.36
630.132	39.31
630.465	39.3
630.797	39.29
631.129	39.33
631.461	39.36
631.794	39.39
632.126	39.4
632.458	39.38
632.79	39.41
633.122	39.4
633.454	39.41
633.786	39.41
634.118	39.44
634.45	39.46
634.781	39.48
635.113	39.49
635.445	39.48
635.777	39.53
636.108	39.52
636.44	39.51
636.771	39.56
637.103	39.58
637.434	39.5
637.765	39.49
638.097	39.47
638.428	39.46
638.759	39.43
639.09	39.37
639.422	39.42
639.753	39.43
640.084	39.45
640.415	39.49
640.746	39.53
641.077	39.51
641.407	39.46
641.738	39.49
642.069	39.45
642.4	39.47
642.73	39.53
643.061	39.56
643.392	39.59
643.722	39.61
644.053	39.59
644.383	39.68
644.713	39.67
645.044	39.67
645.374	39.6
645.704	39.59
646.034	39.7
646.365	39.69
646.695	39.75
647.025	39.77
647.355	39.81
647.685	39.79
