Data from pcis_p_m4_p2_Reflection_5.txt Node
Date: Wed Jul 12 17:58:04 ART 2017
User: rodoncho
Spectrometer: USB2E3644
Trigger mode: 4
Integration Time (sec): 6.000000E-2
Scans to average: 10
Electric dark correction enabled: true
Nonlinearity correction enabled: false
Boxcar width: 10
XAxis mode: Wavelengths
Number of Pixels in Spectrum: 2048
>>>>>Begin Spectral Data<<<<<
178.315	-57.36
178.696	357.14
179.076	118.23
179.457	31.88
179.838	52.63
180.218	-137.93
180.599	592
180.979	111.11
181.36	376
181.74	-27.4
182.121	-8.38
182.501	135.73
182.881	133.53
183.262	197.24
183.642	-157.75
184.022	48.67
184.402	74
184.783	90.78
185.163	105.78
185.543	104.78
185.923	116.47
186.303	109.84
186.683	105.26
187.063	102.5
187.443	96.54
187.823	98.94
188.203	102.49
188.583	104.38
188.963	103.26
189.343	103.7
189.723	110.57
190.102	114.11
190.482	113.24
190.862	113.95
191.242	112.56
191.621	112.32
192.001	114.16
192.38	115.1
192.76	115.78
193.14	115.4
193.519	115.97
193.898	113.14
194.278	115.72
194.657	115.35
195.037	113.67
195.416	113
195.795	111.59
196.175	110.55
196.554	110
196.933	110.5
197.312	110.16
197.692	108.6
198.071	108.33
198.45	109.87
198.829	106.84
199.208	106.1
199.587	105.46
199.966	103.04
200.345	104.6
200.724	101.6
201.103	100.53
201.482	100.24
201.86	100.62
202.239	99.39
202.618	98.2
202.997	97.4
203.375	98.66
203.754	99.04
204.133	98.78
204.511	97.9
204.89	100.22
205.269	100.58
205.647	100.94
206.026	102.26
206.404	101.72
206.782	101.28
207.161	101.45
207.539	102.75
207.918	104.03
208.296	104.07
208.674	106.78
209.052	107.88
209.431	109.01
209.809	109.16
210.187	109.85
210.565	112.1
210.943	113.97
211.321	111.97
211.699	111.9
212.077	111.42
212.455	111.87
212.833	109.55
213.211	109.84
213.589	110.15
213.967	109.02
214.345	109.66
214.722	111.69
215.1	112.61
215.478	111.6
215.855	109.99
216.233	107.97
216.611	108.18
216.988	108.67
217.366	107.75
217.743	108.3
218.121	107.61
218.498	106.26
218.876	105.98
219.253	107
219.631	107.96
220.008	107.64
220.385	107.99
220.762	108.03
221.14	106.84
221.517	105.61
221.894	105.7
222.271	103.56
222.648	102.77
223.025	101.86
223.402	101.48
223.78	102.26
224.157	102.5
224.533	102.58
224.91	102.81
225.287	104.41
225.664	104.54
226.041	104.83
226.418	105.15
226.795	106.01
227.171	105.54
227.548	105.11
227.925	106.29
228.301	105.51
228.678	105.96
229.055	106.24
229.431	106.61
229.808	106.2
230.184	106.93
230.561	107.02
230.937	106.86
231.313	107.96
231.69	108.07
232.066	108.87
232.442	109.52
232.819	109.5
233.195	108.43
233.571	107.41
233.947	107.93
234.323	108.11
234.699	107.71
235.075	109.22
235.451	110.58
235.827	111
236.203	113.22
236.579	115.75
236.955	119.04
237.331	119.97
237.707	123.31
238.083	127.8
238.459	132.74
238.834	140.83
239.21	146.26
239.586	153.78
239.961	159.14
240.337	161.07
240.713	163.84
241.088	167.11
241.464	172.45
241.839	178.02
242.215	185.54
242.59	201.34
242.965	236.2
243.341	313.04
243.716	461.04
244.091	799.3
244.467	1700.19
244.842	-46052.63
245.217	-1513.49
245.592	-1169.42
245.967	-1032.1
246.343	-1113.55
246.718	-1330.66
247.093	-1237.63
247.468	-1214.79
247.843	-1048.6
248.218	-802.23
248.593	-592.7
248.967	-449.39
249.342	-382.13
249.717	-362.97
250.092	-356.83
250.467	-380.35
250.841	-515.25
251.216	-1032.33
251.591	-17783.67
251.965	1484.65
252.34	865.16
252.714	680.95
253.089	553.77
253.463	527.35
253.838	573.77
254.212	656.9
254.587	741.05
254.961	1045.26
255.335	4600
255.71	-1321.55
256.084	-415.94
256.458	-234.38
256.832	-167.97
257.206	-143.91
257.581	-130.12
257.955	-122.56
258.329	-117.25
258.703	-108.08
259.077	-101.02
259.451	-95.1
259.825	-90.23
260.199	-87.78
260.572	-85.81
260.946	-82.11
261.32	-80.59
261.694	-78.79
262.068	-77.76
262.441	-74.94
262.815	-74.72
263.189	-76.09
263.562	-80.17
263.936	-92.14
264.309	-109.8
264.683	-131.75
265.056	-148.86
265.43	-157.17
265.803	-154.47
266.176	-147.5
266.55	-150.7
266.923	-149.28
267.296	-144.3
267.67	-138.79
268.043	-127.45
268.416	-114.72
268.789	-101.09
269.162	-89.24
269.535	-82.73
269.908	-77.64
270.281	-74.94
270.654	-74.08
271.027	-75.42
271.4	-75.95
271.773	-77.53
272.146	-77.05
272.519	-73.33
272.891	-70.3
273.264	-68.36
273.637	-67.42
274.01	-68.66
274.382	-67.87
274.755	-66.7
275.127	-66.36
275.5	-66.08
275.872	-65.96
276.245	-66.09
276.617	-68.4
276.99	-71.95
277.362	-73.54
277.734	-74.58
278.107	-74.3
278.479	-71.02
278.851	-67.15
279.223	-64.32
279.596	-61.97
279.968	-61.52
280.34	-62.64
280.712	-60.3
281.084	-56.8
281.456	-51.27
281.828	-46.55
282.2	-42.73
282.572	-38.83
282.944	-36.64
283.315	-35.58
283.687	-34.66
284.059	-34.43
284.431	-34.22
284.802	-33.9
285.174	-32.94
285.546	-31.49
285.917	-30.99
286.289	-30.19
286.66	-29.26
287.032	-28.94
287.403	-28.49
287.775	-28.02
288.146	-27.27
288.518	-26.96
288.889	-27.04
289.26	-28.58
289.632	-29.55
290.003	-30.34
290.374	-32.04
290.745	-32.35
291.116	-31.69
291.487	-30.93
291.858	-30.06
292.229	-28.71
292.6	-26.54
292.971	-25.34
293.342	-23.46
293.713	-21.52
294.084	-19.87
294.455	-18.84
294.826	-17.8
295.196	-17.05
295.567	-16.38
295.938	-15.78
296.308	-16.03
296.679	-15.28
297.05	-14.35
297.42	-13.2
297.791	-12.17
298.161	-10.85
298.532	-10.13
298.902	-9.5
299.272	-8.9
299.643	-7.82
300.013	-7.22
300.383	-6.75
300.754	-6.28
301.124	-6.34
301.494	-6.07
301.864	-5.98
302.234	-5.82
302.604	-5.82
302.974	-5.36
303.344	-5.08
303.714	-5.07
304.084	-4.15
304.454	-3.94
304.824	-3.3
305.194	-2.75
305.563	-2.29
305.933	-1.66
306.303	-0.43
306.673	0.23
307.042	0.6
307.412	0.85
307.781	1.52
308.151	1.9
308.521	2.13
308.89	2.37
309.259	2.77
309.629	2.82
309.998	2.93
310.368	3.25
310.737	3.67
311.106	3.94
311.475	4.54
311.845	4.7
312.214	5.03
312.583	5.32
312.952	5.54
313.321	5.76
313.69	5.56
314.059	5.25
314.428	5.01
314.797	4.87
315.166	4.66
315.535	4.53
315.904	4.42
316.272	4.5
316.641	4.36
317.01	3.91
317.379	3.91
317.747	4.28
318.116	4.47
318.484	4.36
318.853	4.82
319.221	5.04
319.59	5.52
319.958	5.9
320.327	6.19
320.695	6.25
321.063	6.5
321.432	7.03
321.8	7.35
322.168	8.31
322.536	9.2
322.905	9.89
323.273	10.02
323.641	10.36
324.009	10.58
324.377	11.05
324.745	11.61
325.113	12.09
325.481	12.39
325.849	12.88
326.216	13.3
326.584	13.42
326.952	13.6
327.32	13.74
327.687	14.01
328.055	14.31
328.423	14.59
328.79	14.85
329.158	14.95
329.525	15.1
329.893	14.93
330.26	15
330.628	14.95
330.995	15.34
331.362	15.69
331.73	16.19
332.097	16.5
332.464	16.83
332.831	17.16
333.199	17.35
333.566	17.47
333.933	17.55
334.3	17.63
334.667	17.84
335.034	18.07
335.401	18.15
335.768	18.18
336.135	18.34
336.502	18.47
336.868	18.59
337.235	18.86
337.602	19.16
337.969	19.26
338.335	19.56
338.702	19.71
339.069	19.81
339.435	19.83
339.802	19.8
340.168	19.82
340.535	19.79
340.901	19.83
341.267	19.99
341.634	20.19
342	20.49
342.366	20.54
342.733	20.63
343.099	20.65
343.465	20.76
343.831	20.89
344.197	20.96
344.563	21.11
344.929	21.14
345.295	21.24
345.661	21.48
346.027	21.64
346.393	21.82
346.759	21.93
347.125	22.04
347.491	22.31
347.856	22.41
348.222	22.53
348.588	22.65
348.953	22.67
349.319	22.75
349.684	22.81
350.05	22.94
350.415	22.96
350.781	23.17
351.146	23.36
351.512	23.36
351.877	23.54
352.242	23.57
352.608	23.72
352.973	23.76
353.338	23.8
353.703	23.8
354.068	23.91
354.433	23.97
354.798	24.11
355.164	24.22
355.528	24.19
355.893	24.39
356.258	24.55
356.623	24.75
356.988	24.99
357.353	25.27
357.718	25.49
358.082	25.71
358.447	25.87
358.812	26.04
359.176	26.2
359.541	26.32
359.905	26.54
360.27	26.67
360.634	26.77
360.999	26.87
361.363	27.04
361.728	27.08
362.092	27.17
362.456	27.2
362.821	27.26
363.185	27.49
363.549	27.53
363.913	27.69
364.277	27.8
364.641	27.83
365.005	27.85
365.369	27.81
365.733	27.9
366.097	27.97
366.461	27.96
366.825	28.02
367.189	28.06
367.553	28.18
367.916	28.31
368.28	28.41
368.644	28.64
369.007	28.79
369.371	29.01
369.734	29.17
370.098	29.33
370.461	29.48
370.825	29.55
371.188	29.71
371.552	29.75
371.915	29.88
372.278	30.02
372.642	30.1
373.005	30.3
373.368	30.39
373.731	30.48
374.094	30.65
374.457	30.77
374.82	30.89
375.183	30.93
375.546	31.07
375.909	31.21
376.272	31.23
376.635	31.28
376.998	31.31
377.361	31.36
377.723	31.37
378.086	31.5
378.449	31.64
378.811	31.73
379.174	31.84
379.537	31.86
379.899	31.99
380.262	32.13
380.624	32.19
380.987	32.28
381.349	32.37
381.711	32.44
382.074	32.55
382.436	32.62
382.798	32.66
383.16	32.64
383.522	32.72
383.884	32.78
384.247	32.91
384.609	33
384.971	33.07
385.333	33.21
385.695	33.24
386.056	33.29
386.418	33.27
386.78	33.34
387.142	33.42
387.504	33.4
387.865	33.44
388.227	33.5
388.589	33.54
388.95	33.55
389.312	33.54
389.673	33.65
390.035	33.7
390.396	33.78
390.758	33.89
391.119	33.92
391.48	33.93
391.842	33.97
392.203	34.01
392.564	34.14
392.925	34.18
393.286	34.19
393.648	34.24
394.009	34.29
394.37	34.34
394.731	34.33
395.092	34.37
395.452	34.45
395.813	34.5
396.174	34.56
396.535	34.61
396.896	34.7
397.257	34.71
397.617	34.76
397.978	34.8
398.338	34.82
398.699	34.87
399.06	34.93
399.42	34.86
399.781	34.9
400.141	34.84
400.501	34.89
400.862	34.9
401.222	34.92
401.582	34.98
401.943	34.97
402.303	35.04
402.663	35.07
403.023	35.06
403.383	35.1
403.743	35.15
404.103	35.22
404.463	35.23
404.823	35.22
405.183	35.27
405.543	35.32
405.903	35.31
406.262	35.31
406.622	35.36
406.982	35.45
407.342	35.47
407.701	35.52
408.061	35.49
408.42	35.53
408.78	35.56
409.139	35.56
409.499	35.6
409.858	35.63
410.217	35.64
410.577	35.63
410.936	35.63
411.295	35.58
411.655	35.53
412.014	35.52
412.373	35.53
412.732	35.5
413.091	35.46
413.45	35.44
413.809	35.42
414.168	35.36
414.527	35.31
414.886	35.24
415.245	35.17
415.603	35.11
415.962	35.09
416.321	35.06
416.679	35
417.038	34.88
417.397	34.8
417.755	34.73
418.114	34.68
418.472	34.62
418.831	34.58
419.189	34.54
419.547	34.47
419.906	34.39
420.264	34.29
420.622	34.21
420.981	34.15
421.339	34.07
421.697	34.03
422.055	33.98
422.413	33.92
422.771	33.91
423.129	33.89
423.487	33.83
423.845	33.78
424.203	33.74
424.56	33.74
424.918	33.7
425.276	33.67
425.634	33.64
425.991	33.58
426.349	33.54
426.707	33.5
427.064	33.47
427.422	33.46
427.779	33.45
428.137	33.42
428.494	33.38
428.851	33.36
429.209	33.29
429.566	33.17
429.923	33.09
430.28	32.98
430.637	32.9
430.995	32.83
431.352	32.77
431.709	32.73
432.066	32.66
432.423	32.6
432.78	32.52
433.137	32.4
433.493	32.33
433.85	32.26
434.207	32.17
434.564	32.06
434.92	31.93
435.277	31.79
435.634	31.69
435.99	31.55
436.347	31.41
436.703	31.26
437.06	31.12
437.416	30.99
437.773	30.87
438.129	30.74
438.485	30.61
438.841	30.49
439.198	30.38
439.554	30.3
439.91	30.2
440.266	30.09
440.622	30
440.978	29.88
441.334	29.76
441.69	29.63
442.046	29.48
442.402	29.32
442.758	29.16
443.113	28.98
443.469	28.83
443.825	28.7
444.181	28.57
444.536	28.46
444.892	28.36
445.247	28.25
445.603	28.13
445.958	28.05
446.314	27.96
446.669	27.85
447.025	27.73
447.38	27.63
447.735	27.55
448.09	27.46
448.446	27.36
448.801	27.23
449.156	27.1
449.511	26.99
449.866	26.88
450.221	26.78
450.576	26.69
450.931	26.56
451.286	26.39
451.641	26.29
451.995	26.14
452.35	26.02
452.705	25.88
453.06	25.77
453.414	25.64
453.769	25.52
454.123	25.39
454.478	25.28
454.832	25.13
455.187	24.93
455.541	24.71
455.896	24.49
456.25	24.29
456.604	24.12
456.958	23.95
457.313	23.8
457.667	23.68
458.021	23.56
458.375	23.48
458.729	23.39
459.083	23.29
459.437	23.2
459.791	23.11
460.145	23.04
460.499	22.93
460.852	22.82
461.206	22.71
461.56	22.61
461.914	22.51
462.267	22.41
462.621	22.32
462.974	22.22
463.328	22.11
463.681	22.01
464.035	21.9
464.388	21.79
464.742	21.67
465.095	21.54
465.448	21.44
465.801	21.3
466.155	21.18
466.508	21.06
466.861	20.95
467.214	20.83
467.567	20.7
467.92	20.6
468.273	20.5
468.626	20.39
468.979	20.26
469.332	20.14
469.684	20.01
470.037	19.91
470.39	19.81
470.743	19.71
471.095	19.61
471.448	19.51
471.8	19.4
472.153	19.31
472.505	19.21
472.858	19.08
473.21	18.97
473.562	18.84
473.915	18.7
474.267	18.58
474.619	18.48
474.971	18.37
475.324	18.28
475.676	18.17
476.028	18.09
476.38	18
476.732	17.9
477.084	17.8
477.436	17.69
477.787	17.58
478.139	17.45
478.491	17.31
478.843	17.17
479.195	17.01
479.546	16.78
479.898	16.53
480.249	16.31
480.601	16.12
480.952	15.98
481.304	15.87
481.655	15.8
482.007	15.72
482.358	15.65
482.709	15.58
483.061	15.51
483.412	15.42
483.763	15.34
484.114	15.25
484.465	15.15
484.816	15.07
485.167	15
485.518	14.95
485.869	14.9
486.22	14.87
486.571	14.84
486.922	14.8
487.272	14.74
487.623	14.64
487.974	14.54
488.324	14.43
488.675	14.33
489.025	14.25
489.376	14.19
489.726	14.14
490.077	14.08
490.427	14.03
490.778	13.98
491.128	13.93
491.478	13.91
491.828	13.9
492.179	13.87
492.529	13.84
492.879	13.79
493.229	13.72
493.579	13.66
493.929	13.59
494.279	13.54
494.629	13.5
494.979	13.46
495.328	13.4
495.678	13.37
496.028	13.34
496.378	13.29
496.727	13.24
497.077	13.18
497.426	13.15
497.776	13.09
498.125	13.06
498.475	13.01
498.824	12.95
499.174	12.9
499.523	12.85
499.872	12.76
500.221	12.71
500.571	12.65
500.92	12.6
501.269	12.57
501.618	12.53
501.967	12.48
502.316	12.43
502.665	12.4
503.014	12.35
503.363	12.32
503.711	12.26
504.06	12.18
504.409	12.11
504.758	12.04
505.106	11.97
505.455	11.9
505.803	11.84
506.152	11.78
506.5	11.73
506.849	11.67
507.197	11.63
507.546	11.59
507.894	11.56
508.242	11.51
508.59	11.45
508.939	11.39
509.287	11.36
509.635	11.33
509.983	11.29
510.331	11.26
510.679	11.21
511.027	11.17
511.375	11.15
511.723	11.14
512.07	11.11
512.418	11.09
512.766	11.05
513.114	11.03
513.461	11
513.809	10.95
514.156	10.9
514.504	10.87
514.851	10.82
515.199	10.75
515.546	10.69
515.893	10.64
516.241	10.62
516.588	10.56
516.935	10.51
517.282	10.47
517.63	10.43
517.977	10.38
518.324	10.37
518.671	10.34
519.018	10.3
519.365	10.27
519.711	10.24
520.058	10.21
520.405	10.18
520.752	10.15
521.099	10.12
521.445	10.09
521.792	10.05
522.138	9.98
522.485	9.94
522.832	9.9
523.178	9.87
523.524	9.84
523.871	9.8
524.217	9.75
524.563	9.67
524.91	9.57
525.256	9.48
525.602	9.4
525.948	9.34
526.294	9.3
526.64	9.27
526.986	9.23
527.332	9.21
527.678	9.18
528.024	9.17
528.37	9.15
528.716	9.13
529.061	9.11
529.407	9.09
529.753	9.05
530.098	9.02
530.444	8.99
530.789	8.96
531.135	8.94
531.48	8.93
531.826	8.94
532.171	8.95
532.516	8.94
532.862	8.94
533.207	8.94
533.552	8.92
533.897	8.9
534.242	8.9
534.587	8.87
534.932	8.87
535.277	8.83
535.622	8.81
535.967	8.82
536.312	8.81
536.657	8.82
537.001	8.81
537.346	8.79
537.691	8.75
538.035	8.69
538.38	8.65
538.724	8.62
539.069	8.57
539.413	8.52
539.758	8.48
540.102	8.46
540.446	8.43
540.791	8.4
541.135	8.4
541.479	8.37
541.823	8.36
542.167	8.33
542.512	8.33
542.856	8.31
543.2	8.27
543.543	8.24
543.887	8.21
544.231	8.21
544.575	8.21
544.919	8.2
545.262	8.21
545.606	8.19
545.95	8.17
546.293	8.17
546.637	8.17
546.98	8.19
547.324	8.17
547.667	8.17
548.011	8.14
548.354	8.11
548.697	8.1
549.04	8.1
549.384	8.1
549.727	8.06
550.07	8.05
550.413	8.04
550.756	8.03
551.099	8.02
551.442	7.98
551.785	7.96
552.128	7.95
552.47	7.93
552.813	7.91
553.156	7.91
553.499	7.87
553.841	7.84
554.184	7.81
554.526	7.8
554.869	7.75
555.211	7.75
555.554	7.72
555.896	7.68
556.238	7.65
556.581	7.6
556.923	7.6
557.265	7.55
557.607	7.51
557.949	7.46
558.291	7.42
558.633	7.39
558.975	7.35
559.317	7.28
559.659	7.26
560.001	7.24
560.343	7.2
560.685	7.16
561.026	7.13
561.368	7.09
561.71	7.03
562.051	7.02
562.393	6.98
562.734	6.95
563.076	6.92
563.417	6.88
563.759	6.86
564.1	6.82
564.441	6.8
564.782	6.78
565.124	6.76
565.465	6.76
565.806	6.73
566.147	6.71
566.488	6.72
566.829	6.66
567.17	6.63
567.511	6.58
567.851	6.55
568.192	6.52
568.533	6.51
568.874	6.49
569.214	6.47
569.555	6.43
569.895	6.39
570.236	6.37
570.576	6.35
570.917	6.31
571.257	6.29
571.598	6.24
571.938	6.22
572.278	6.21
572.618	6.18
572.959	6.14
573.299	6.1
573.639	6.06
573.979	6.05
574.319	6.01
574.659	5.98
574.999	5.95
575.339	5.92
575.678	5.86
576.018	5.81
576.358	5.74
576.698	5.72
577.037	5.66
577.377	5.62
577.716	5.56
578.056	5.55
578.395	5.51
578.735	5.49
579.074	5.42
579.413	5.34
579.753	5.27
580.092	5.25
580.431	5.24
580.77	5.21
581.109	5.18
581.448	5.16
581.787	5.13
582.126	5.07
582.465	5.04
582.804	5.02
583.143	5.02
583.482	5
583.82	4.98
584.159	4.97
584.498	4.94
584.836	4.93
585.175	4.89
585.514	4.84
585.852	4.84
586.19	4.83
586.529	4.82
586.867	4.84
587.205	4.83
587.544	4.82
587.882	4.81
588.22	4.79
588.558	4.77
588.896	4.78
589.234	4.79
589.572	4.78
589.91	4.75
590.248	4.7
590.586	4.69
590.924	4.67
591.262	4.67
591.599	4.7
591.937	4.67
592.275	4.63
592.612	4.62
592.95	4.6
593.287	4.59
593.625	4.61
593.962	4.6
594.299	4.6
594.637	4.56
594.974	4.55
595.311	4.54
595.648	4.54
595.985	4.55
596.322	4.52
596.659	4.52
596.996	4.49
597.333	4.49
597.67	4.48
598.007	4.45
598.344	4.43
598.681	4.37
599.017	4.35
599.354	4.34
599.691	4.32
600.027	4.3
600.364	4.28
600.7	4.26
601.037	4.24
601.373	4.25
601.71	4.29
602.046	4.28
602.382	4.3
602.718	4.31
603.054	4.28
603.391	4.26
603.727	4.24
604.063	4.25
604.399	4.24
604.735	4.23
605.071	4.23
605.406	4.23
605.742	4.23
606.078	4.23
606.414	4.24
606.749	4.26
607.085	4.26
607.421	4.24
607.756	4.2
608.092	4.15
608.427	4.09
608.762	4.02
609.098	3.98
609.433	3.91
609.768	3.85
610.104	3.83
610.439	3.83
610.774	3.81
611.109	3.81
611.444	3.79
611.779	3.75
612.114	3.72
612.449	3.7
612.784	3.68
613.118	3.67
613.453	3.62
613.788	3.56
614.123	3.46
614.457	3.41
614.792	3.39
615.126	3.34
615.461	3.32
615.795	3.28
616.13	3.26
616.464	3.24
616.798	3.22
617.132	3.22
617.467	3.21
617.801	3.2
618.135	3.15
618.469	3.14
618.803	3.11
619.137	3.09
619.471	3.04
619.805	3
620.139	2.95
620.472	2.92
620.806	2.89
621.14	2.89
621.473	2.89
621.807	2.85
622.141	2.89
622.474	2.87
622.808	2.85
623.141	2.84
623.474	2.86
623.808	2.84
624.141	2.84
624.474	2.83
624.807	2.83
625.141	2.85
625.474	2.86
625.807	2.92
626.14	2.94
626.473	2.96
626.806	2.97
627.138	2.98
627.471	2.96
627.804	2.98
628.137	3.02
628.469	3
628.802	3.01
629.135	2.96
629.467	2.93
629.8	2.94
630.132	2.93
630.465	2.93
630.797	2.92
631.129	2.91
631.461	2.9
631.794	2.89
632.126	2.85
632.458	2.82
632.79	2.77
633.122	2.73
633.454	2.73
633.786	2.71
634.118	2.69
634.45	2.68
634.781	2.63
635.113	2.6
635.445	2.59
635.777	2.61
636.108	2.63
636.44	2.61
636.771	2.57
637.103	2.54
637.434	2.51
637.765	2.49
638.097	2.41
638.428	2.37
638.759	2.34
639.09	2.32
639.422	2.31
639.753	2.29
640.084	2.27
640.415	2.23
640.746	2.23
641.077	2.19
641.407	2.18
641.738	2.18
642.069	2.18
642.4	2.16
642.73	2.11
643.061	2.08
643.392	2.09
643.722	2.12
644.053	2.07
644.383	2.08
644.713	2.05
645.044	2.05
645.374	2.03
645.704	2.02
646.034	2.06
646.365	2.08
646.695	2.07
647.025	2.03
647.355	2.02
647.685	2.01
648.015	2.01
648.344	2.04
648.674	2.05
649.004	2.05
649.334	2.1
649.663	2.14
649.993	2.19
650.323	2.2
650.652	2.2
650.982	2.25
651.311	2.23
651.64	2.24
651.97	2.24
652.299	2.3
652.628	2.3
652.958	2.23
653.287	2.18
653.616	2.17
653.945	2.21
654.274	2.2
