Data from pcis_p_m4_p1_Reflection_4.txt Node
Date: Wed Jul 12 17:56:59 ART 2017
User: rodoncho
Spectrometer: USB2E3644
Trigger mode: 4
Integration Time (sec): 6.000000E-2
Scans to average: 10
Electric dark correction enabled: true
Nonlinearity correction enabled: false
Boxcar width: 10
XAxis mode: Wavelengths
Number of Pixels in Spectrum: 2048
>>>>>Begin Spectral Data<<<<<
178.315	-8.88
178.696	22.09
179.076	38.33
179.457	50
179.838	35
180.218	102.33
180.599	92.45
180.979	-200
181.36	117.5
181.74	101.03
182.121	-100
182.501	83.13
182.881	77.82
183.262	46.07
183.642	-11.96
184.022	-1112.5
184.402	196.59
184.783	129.79
185.163	150.67
185.543	144.42
185.923	137.81
186.303	139.35
186.683	139.42
187.063	140.58
187.443	142.17
187.823	149.85
188.203	161.9
188.583	160.05
188.963	152.76
189.343	150.05
189.723	150.2
190.102	146.14
190.482	142.61
190.862	145.98
191.242	145.21
191.621	144.65
192.001	141.73
192.38	141.39
192.76	140.47
193.14	134.38
193.519	130.19
193.898	129.51
194.278	126.94
194.657	126.98
195.037	120.51
195.416	118.65
195.795	117.64
196.175	115.13
196.554	115.08
196.933	117.99
197.312	118.29
197.692	117.64
198.071	115.95
198.45	114.99
198.829	113.96
199.208	114.03
199.587	113.19
199.966	113.69
200.345	113.17
200.724	114.07
201.103	115.6
201.482	116.78
201.86	116.07
202.239	116.81
202.618	116.94
202.997	120.82
203.375	123.83
203.754	122.98
204.133	122.91
204.511	122.8
204.89	120.13
205.269	120.33
205.647	120.44
206.026	122.34
206.404	123.05
206.782	122
207.161	121.96
207.539	122.45
207.918	121.37
208.296	119.66
208.674	117.63
209.052	115.59
209.431	114.14
209.809	115.13
210.187	114.73
210.565	113.41
210.943	111.01
211.321	110.33
211.699	110.36
212.077	111.36
212.455	112.57
212.833	113.53
213.211	111.74
213.589	111.67
213.967	110.75
214.345	110.97
214.722	109.65
215.1	107.51
215.478	106.18
215.855	107.17
216.233	108.61
216.611	110.9
216.988	112.83
217.366	115.92
217.743	115.25
218.121	116.19
218.498	117.65
218.876	118.89
219.253	119.37
219.631	119.73
220.008	118.1
220.385	116.6
220.762	116.4
221.14	117.52
221.517	117.77
221.894	117.24
222.271	117.85
222.648	120.83
223.025	121.84
223.402	121.88
223.78	122.79
224.157	124.56
224.533	125.21
224.91	124.56
225.287	122.93
225.664	124.87
226.041	123.54
226.418	123.09
226.795	123.95
227.171	122.62
227.548	121.8
227.925	122.72
228.301	124.63
228.678	126.86
229.055	127.49
229.431	126.62
229.808	126.71
230.184	126.01
230.561	125.11
230.937	125.3
231.313	126.16
231.69	125.52
232.066	125.22
232.442	125.19
232.819	124.96
233.195	124.82
233.571	124.26
233.947	125.07
234.323	125.11
234.699	124.84
235.075	124.91
235.451	126.59
235.827	127.2
236.203	127.92
236.579	127.29
236.955	126.27
237.331	126.77
237.707	129.53
238.083	131.97
238.459	135.98
238.834	142.96
239.21	148.21
239.586	154.77
239.961	159.83
240.337	162.2
240.713	166.93
241.088	172.17
241.464	173.97
241.839	182.28
242.215	195.87
242.59	213.51
242.965	255.64
243.341	346.18
243.716	557.18
244.091	1183.8
244.467	10497.5
244.842	-1689.39
245.217	-785.14
245.592	-676.32
245.967	-604.62
246.343	-650.84
246.718	-757.77
247.093	-699.01
247.468	-643.03
247.843	-612.05
248.218	-484.29
248.593	-396.62
248.967	-325.94
249.342	-291.7
249.717	-289.11
250.092	-292.28
250.467	-304.37
250.841	-370.51
251.216	-605.54
251.591	-1481.88
251.965	6804.69
252.34	1422.48
252.714	955.51
253.089	678.01
253.463	643.14
253.838	600.27
254.212	657.04
254.587	852.77
254.961	1302.04
255.335	14309.68
255.71	-956.86
256.084	-376.18
256.458	-224.7
256.832	-165.16
257.206	-137.43
257.581	-124.69
257.955	-119.88
258.329	-113.53
258.703	-105.72
259.077	-98.83
259.451	-94.66
259.825	-87.61
260.199	-83.41
260.572	-79.98
260.946	-77.3
261.32	-75.78
261.694	-72.88
262.068	-70.44
262.441	-68.83
262.815	-68.02
263.189	-68.84
263.562	-72.48
263.936	-82.32
264.309	-97.19
264.683	-114.25
265.056	-126.3
265.43	-128.75
265.803	-124.98
266.176	-122.79
266.55	-122.66
266.923	-121.46
267.296	-117.38
267.67	-112.72
268.043	-103.38
268.416	-96.02
268.789	-86.63
269.162	-77.18
269.535	-71.22
269.908	-68
270.281	-66.21
270.654	-66.45
271.027	-68.64
271.4	-70.35
271.773	-70.77
272.146	-70.41
272.519	-68.19
272.891	-65.59
273.264	-64.75
273.637	-64.01
274.01	-64.4
274.382	-63.42
274.755	-61.83
275.127	-60.33
275.5	-61.41
275.872	-62.86
276.245	-62.85
276.617	-64.5
276.99	-68.11
277.362	-70.86
277.734	-71.32
278.107	-70.62
278.479	-67.35
278.851	-63.05
279.223	-59.8
279.596	-58.61
279.968	-56.32
280.34	-55.76
280.712	-54.2
281.084	-50.88
281.456	-46.36
281.828	-41.61
282.2	-38.22
282.572	-35.35
282.944	-33.43
283.315	-32.23
283.687	-31.23
284.059	-31.24
284.431	-30.44
284.802	-29.16
285.174	-28.22
285.546	-27.27
285.917	-26.96
286.289	-26.05
286.66	-25.27
287.032	-24.86
287.403	-23.66
287.775	-23.16
288.146	-22.42
288.518	-21.96
288.889	-22.31
289.26	-23.55
289.632	-24.54
290.003	-25.23
290.374	-26.05
290.745	-26.67
291.116	-26.24
291.487	-25.13
291.858	-23.56
292.229	-22.52
292.6	-21.4
292.971	-19.93
293.342	-18.65
293.713	-16.3
294.084	-15.17
294.455	-14.35
294.826	-13.51
295.196	-13.52
295.567	-13.66
295.938	-13.56
296.308	-13.69
296.679	-12.82
297.05	-11.67
297.42	-11.02
297.791	-10.07
298.161	-9.04
298.532	-8.29
298.902	-7.51
299.272	-7.05
299.643	-6.67
300.013	-6.5
300.383	-6.18
300.754	-5.87
301.124	-5.43
301.494	-5.54
301.864	-5.12
302.234	-5.27
302.604	-5.42
302.974	-5.35
303.344	-4.95
303.714	-4.3
304.084	-3.68
304.454	-3.33
304.824	-2.71
305.194	-1.69
305.563	-0.96
305.933	-0.43
306.303	0.42
306.673	1.03
307.042	1.77
307.412	2.68
307.781	3.83
308.151	4.58
308.521	5.18
308.89	5.48
309.259	6.04
309.629	6.08
309.998	6.63
310.368	7.14
310.737	7.43
311.106	7.8
311.475	7.92
311.845	8.42
312.214	8.9
312.583	9.18
312.952	9.25
313.321	9.32
313.69	9.24
314.059	8.95
314.428	8.77
314.797	8.64
315.166	7.92
315.535	7.38
315.904	7.28
316.272	7.17
316.641	6.99
317.01	7.25
317.379	7.41
317.747	7.5
318.116	7.75
318.484	8.06
318.853	8.36
319.221	8.73
319.59	8.99
319.958	9.13
320.327	9.34
320.695	9.62
321.063	9.91
321.432	10.64
321.8	11.14
322.168	11.93
322.536	12.64
322.905	13.52
323.273	13.85
323.641	14.04
324.009	13.92
324.377	14.29
324.745	14.18
325.113	14.32
325.481	14.71
325.849	15.05
326.216	15.4
326.584	15.7
326.952	15.7
327.32	15.98
327.687	16.56
328.055	16.81
328.423	16.81
328.79	16.89
329.158	16.85
329.525	17.16
329.893	17.21
330.26	17.09
330.628	17
330.995	17.36
331.362	17.68
331.73	18.41
332.097	18.69
332.464	18.91
332.831	19.3
333.199	19.46
333.566	19.55
333.933	19.74
334.3	19.82
334.667	20.13
335.034	20.11
335.401	20.07
335.768	19.99
336.135	20.26
336.502	20.43
336.868	20.67
337.235	20.87
337.602	21.09
337.969	21.27
338.335	21.59
338.702	21.65
339.069	21.76
339.435	21.82
339.802	21.94
340.168	22.17
340.535	22.28
340.901	22.41
341.267	22.64
341.634	22.86
342	23.12
342.366	23.27
342.733	23.49
343.099	23.66
343.465	23.91
343.831	24.15
344.197	24.37
344.563	24.32
344.929	24.48
345.295	24.65
345.661	24.99
346.027	25.1
346.393	25.31
346.759	25.33
347.125	25.48
347.491	25.72
347.856	25.81
348.222	25.92
348.588	26.05
348.953	26.17
349.319	26.23
349.684	26.28
350.05	26.5
350.415	26.63
350.781	26.73
351.146	26.93
351.512	27
351.877	27.22
352.242	27.45
352.608	27.49
352.973	27.61
353.338	27.64
353.703	27.68
354.068	27.92
354.433	28.11
354.798	28.21
355.164	28.24
355.528	28.33
355.893	28.44
356.258	28.51
356.623	28.62
356.988	28.81
357.353	29.09
357.718	29.18
358.082	29.37
358.447	29.4
358.812	29.5
359.176	29.62
359.541	29.63
359.905	29.72
360.27	29.93
360.634	30.15
360.999	30.15
361.363	30.37
361.728	30.3
362.092	30.43
362.456	30.46
362.821	30.58
363.185	30.64
363.549	30.78
363.913	30.94
364.277	30.95
364.641	30.96
365.005	30.99
365.369	31.05
365.733	31
366.097	31.21
366.461	31.2
366.825	31.27
367.189	31.41
367.553	31.64
367.916	31.7
368.28	31.75
368.644	31.99
369.007	32.09
369.371	32.29
369.734	32.42
370.098	32.6
370.461	32.67
370.825	32.86
371.188	33.05
371.552	33.17
371.915	33.3
372.278	33.43
372.642	33.55
373.005	33.74
373.368	33.9
373.731	34.01
374.094	34.16
374.457	34.25
374.82	34.35
375.183	34.36
375.546	34.44
375.909	34.55
376.272	34.52
376.635	34.6
376.998	34.66
377.361	34.69
377.723	34.77
378.086	34.95
378.449	35.01
378.811	34.97
379.174	35.03
379.537	35.13
379.899	35.2
380.262	35.3
380.624	35.3
380.987	35.43
381.349	35.44
381.711	35.52
382.074	35.58
382.436	35.65
382.798	35.71
383.16	35.82
383.522	35.9
383.884	36.04
384.247	36.15
384.609	36.21
384.971	36.26
385.333	36.3
385.695	36.28
386.056	36.41
386.418	36.54
386.78	36.62
387.142	36.61
387.504	36.71
387.865	36.74
388.227	36.78
388.589	36.82
388.95	36.92
389.312	36.96
389.673	37.06
390.035	37.12
390.396	37.19
390.758	37.2
391.119	37.21
391.48	37.3
391.842	37.29
392.203	37.35
392.564	37.39
392.925	37.43
393.286	37.49
393.648	37.44
394.009	37.46
394.37	37.45
394.731	37.54
395.092	37.59
395.452	37.6
395.813	37.68
396.174	37.72
396.535	37.72
396.896	37.78
397.257	37.82
397.617	37.87
397.978	37.92
398.338	37.98
398.699	38.04
399.06	38.08
399.42	38.14
399.781	38.2
400.141	38.25
400.501	38.29
400.862	38.35
401.222	38.47
401.582	38.48
401.943	38.53
402.303	38.58
402.663	38.64
403.023	38.69
403.383	38.71
403.743	38.71
404.103	38.79
404.463	38.8
404.823	38.8
405.183	38.81
405.543	38.87
405.903	38.93
406.262	38.95
406.622	38.94
406.982	38.93
407.342	38.95
407.701	38.98
408.061	38.96
408.42	38.99
408.78	38.92
409.139	38.98
409.499	38.98
409.858	38.99
410.217	38.94
410.577	38.95
410.936	38.97
411.295	39.04
411.655	39
412.014	39.03
412.373	39.02
412.732	38.99
413.091	38.93
413.45	38.88
413.809	38.88
414.168	38.81
414.527	38.75
414.886	38.67
415.245	38.61
415.603	38.57
415.962	38.44
416.321	38.43
416.679	38.36
417.038	38.26
417.397	38.22
417.755	38.12
418.114	38.07
418.472	37.98
418.831	37.89
419.189	37.84
419.547	37.78
419.906	37.71
420.264	37.64
420.622	37.56
420.981	37.5
421.339	37.42
421.697	37.35
422.055	37.31
422.413	37.26
422.771	37.19
423.129	37.15
423.487	37.13
423.845	37.08
424.203	37.04
424.56	37.02
424.918	36.96
425.276	36.93
425.634	36.89
425.991	36.83
426.349	36.8
426.707	36.77
427.064	36.7
427.422	36.67
427.779	36.64
428.137	36.58
428.494	36.5
428.851	36.43
429.209	36.36
429.566	36.3
429.923	36.21
430.28	36.17
430.637	36.09
430.995	36.02
431.352	35.95
431.709	35.89
432.066	35.86
432.423	35.79
432.78	35.72
433.137	35.61
433.493	35.54
433.85	35.44
434.207	35.32
434.564	35.21
434.92	35.07
435.277	34.95
435.634	34.82
435.99	34.68
436.347	34.54
436.703	34.38
437.06	34.22
437.416	34.1
437.773	33.97
438.129	33.83
438.485	33.73
438.841	33.58
439.198	33.47
439.554	33.33
439.91	33.21
440.266	33.09
440.622	32.99
440.978	32.86
441.334	32.72
441.69	32.59
442.046	32.46
442.402	32.27
442.758	32.09
443.113	31.95
443.469	31.77
443.825	31.63
444.181	31.5
444.536	31.38
444.892	31.25
445.247	31.11
445.603	31.01
445.958	30.88
446.314	30.79
446.669	30.7
447.025	30.59
447.38	30.51
447.735	30.41
448.09	30.3
448.446	30.2
448.801	30.07
449.156	29.94
449.511	29.78
449.866	29.69
450.221	29.58
450.576	29.42
450.931	29.29
451.286	29.15
451.641	29.02
451.995	28.85
452.35	28.71
452.705	28.58
453.06	28.43
453.414	28.32
453.769	28.16
454.123	28
454.478	27.86
454.832	27.69
455.187	27.52
455.541	27.31
455.896	27.1
456.25	26.9
456.604	26.7
456.958	26.54
457.313	26.38
457.667	26.24
458.021	26.12
458.375	26.01
458.729	25.9
459.083	25.81
459.437	25.7
459.791	25.61
460.145	25.51
460.499	25.42
460.852	25.31
461.206	25.2
461.56	25.09
461.914	24.99
462.267	24.87
462.621	24.75
462.974	24.63
463.328	24.51
463.681	24.37
464.035	24.24
464.388	24.09
464.742	23.98
465.095	23.83
465.448	23.71
465.801	23.59
466.155	23.47
466.508	23.34
466.861	23.22
467.214	23.09
467.567	22.97
467.92	22.85
468.273	22.73
468.626	22.62
468.979	22.53
469.332	22.38
469.684	22.26
470.037	22.14
470.39	22.01
470.743	21.89
471.095	21.76
471.448	21.65
471.8	21.55
472.153	21.42
472.505	21.31
472.858	21.19
473.21	21.07
473.562	20.92
473.915	20.79
474.267	20.66
474.619	20.54
474.971	20.41
475.324	20.3
475.676	20.18
476.028	20.08
476.38	19.95
476.732	19.84
477.084	19.71
477.436	19.57
477.787	19.47
478.139	19.35
478.491	19.23
478.843	19.09
479.195	18.94
479.546	18.72
479.898	18.47
480.249	18.24
480.601	18.07
480.952	17.92
481.304	17.81
481.655	17.7
482.007	17.61
482.358	17.53
482.709	17.45
483.061	17.36
483.412	17.27
483.763	17.19
484.114	17.11
484.465	17.03
484.816	16.96
485.167	16.88
485.518	16.82
485.869	16.76
486.22	16.71
486.571	16.66
486.922	16.62
487.272	16.55
487.623	16.45
487.974	16.32
488.324	16.2
488.675	16.08
489.025	16
489.376	15.95
489.726	15.87
490.077	15.81
490.427	15.77
490.778	15.71
491.128	15.66
491.478	15.61
491.828	15.58
492.179	15.53
492.529	15.48
492.879	15.42
493.229	15.37
493.579	15.31
493.929	15.25
494.279	15.19
494.629	15.13
494.979	15.06
495.328	14.99
495.678	14.93
496.028	14.89
496.378	14.84
496.727	14.77
497.077	14.72
497.426	14.68
497.776	14.62
498.125	14.57
498.475	14.51
498.824	14.44
499.174	14.37
499.523	14.31
499.872	14.26
500.221	14.22
500.571	14.15
500.92	14.1
501.269	14.05
501.618	13.98
501.967	13.92
502.316	13.86
502.665	13.81
503.014	13.76
503.363	13.7
503.711	13.65
504.06	13.59
504.409	13.52
504.758	13.43
505.106	13.36
505.455	13.32
505.803	13.25
506.152	13.19
506.5	13.13
506.849	13.07
507.197	13
507.546	12.94
507.894	12.89
508.242	12.84
508.59	12.79
508.939	12.76
509.287	12.71
509.635	12.68
509.983	12.63
510.331	12.6
510.679	12.54
511.027	12.5
511.375	12.47
511.723	12.44
512.07	12.41
512.418	12.38
512.766	12.32
513.114	12.3
513.461	12.27
513.809	12.23
514.156	12.19
514.504	12.14
514.851	12.07
515.199	12
515.546	11.93
515.893	11.89
516.241	11.85
516.588	11.79
516.935	11.77
517.282	11.73
517.63	11.69
517.977	11.65
518.324	11.62
518.671	11.59
519.018	11.55
519.365	11.52
519.711	11.49
520.058	11.45
520.405	11.4
520.752	11.37
521.099	11.32
521.445	11.29
521.792	11.24
522.138	11.21
522.485	11.17
522.832	11.14
523.178	11.09
523.524	11.05
523.871	11.02
524.217	10.95
524.563	10.87
524.91	10.79
525.256	10.71
525.602	10.64
525.948	10.58
526.294	10.53
526.64	10.49
526.986	10.45
527.332	10.43
527.678	10.41
528.024	10.39
528.37	10.37
528.716	10.35
529.061	10.32
529.407	10.28
529.753	10.25
530.098	10.21
530.444	10.17
530.789	10.14
531.135	10.12
531.48	10.11
531.826	10.11
532.171	10.09
532.516	10.07
532.862	10.04
533.207	10.04
533.552	10.02
533.897	10
534.242	10
534.587	9.99
534.932	9.98
535.277	9.95
535.622	9.93
535.967	9.92
536.312	9.91
536.657	9.91
537.001	9.89
537.346	9.87
537.691	9.83
538.035	9.78
538.38	9.75
538.724	9.69
539.069	9.64
539.413	9.61
539.758	9.58
540.102	9.57
540.446	9.53
540.791	9.51
541.135	9.5
541.479	9.47
541.823	9.46
542.167	9.43
542.512	9.42
542.856	9.4
543.2	9.38
543.543	9.37
543.887	9.35
544.231	9.35
544.575	9.34
544.919	9.33
545.262	9.33
545.606	9.33
545.95	9.33
546.293	9.33
546.637	9.31
546.98	9.32
547.324	9.3
547.667	9.3
548.011	9.28
548.354	9.26
548.697	9.23
549.04	9.21
549.384	9.18
549.727	9.15
550.07	9.13
550.413	9.11
550.756	9.08
551.099	9.07
551.442	9.02
551.785	8.98
552.128	8.97
552.47	8.92
552.813	8.89
553.156	8.85
553.499	8.83
553.841	8.82
554.184	8.78
554.526	8.75
554.869	8.71
555.211	8.66
555.554	8.63
555.896	8.58
556.238	8.56
556.581	8.55
556.923	8.51
557.265	8.48
557.607	8.45
557.949	8.42
558.291	8.36
558.633	8.34
558.975	8.3
559.317	8.27
559.659	8.25
560.001	8.23
560.343	8.2
560.685	8.17
561.026	8.12
561.368	8.06
561.71	8
562.051	7.96
562.393	7.95
562.734	7.9
563.076	7.88
563.417	7.84
563.759	7.81
564.1	7.79
564.441	7.75
564.782	7.7
565.124	7.65
565.465	7.63
565.806	7.6
566.147	7.59
566.488	7.56
566.829	7.52
567.17	7.47
567.511	7.43
567.851	7.4
568.192	7.39
568.533	7.38
568.874	7.36
569.214	7.36
569.555	7.31
569.895	7.27
570.236	7.23
570.576	7.18
570.917	7.15
571.257	7.11
571.598	7.1
571.938	7.08
572.278	7.05
572.618	7.02
572.959	6.99
573.299	6.95
573.639	6.92
573.979	6.9
574.319	6.88
574.659	6.85
574.999	6.82
575.339	6.77
575.678	6.73
576.018	6.69
576.358	6.66
576.698	6.63
577.037	6.6
577.377	6.57
577.716	6.57
578.056	6.55
578.395	6.51
578.735	6.45
579.074	6.4
579.413	6.37
579.753	6.31
580.092	6.29
580.431	6.27
580.77	6.24
581.109	6.22
581.448	6.18
581.787	6.17
582.126	6.12
582.465	6.11
582.804	6.08
583.143	6.05
583.482	6.01
583.82	5.97
584.159	5.96
584.498	5.92
584.836	5.86
585.175	5.81
585.514	5.8
585.852	5.77
586.19	5.77
586.529	5.76
586.867	5.78
587.205	5.77
587.544	5.78
587.882	5.75
588.22	5.71
588.558	5.7
588.896	5.68
589.234	5.68
589.572	5.65
589.91	5.62
590.248	5.6
590.586	5.59
590.924	5.6
591.262	5.59
591.599	5.59
591.937	5.59
592.275	5.58
592.612	5.56
592.95	5.55
593.287	5.53
593.625	5.54
593.962	5.52
594.299	5.52
594.637	5.5
594.974	5.49
595.311	5.5
595.648	5.49
595.985	5.5
596.322	5.46
596.659	5.44
596.996	5.43
597.333	5.4
597.67	5.39
598.007	5.37
598.344	5.33
598.681	5.29
599.017	5.25
599.354	5.23
599.691	5.2
600.027	5.19
600.364	5.17
600.7	5.17
601.037	5.14
601.373	5.12
601.71	5.11
602.046	5.1
602.382	5.09
602.718	5.08
603.054	5.07
603.391	5.07
603.727	5.08
604.063	5.08
604.399	5.09
604.735	5.08
605.071	5.09
605.406	5.09
605.742	5.1
606.078	5.11
606.414	5.12
606.749	5.14
607.085	5.14
607.421	5.13
607.756	5.1
608.092	5.05
608.427	5.01
608.762	4.96
609.098	4.91
609.433	4.87
609.768	4.83
610.104	4.8
610.439	4.79
610.774	4.8
611.109	4.76
611.444	4.74
611.779	4.71
612.114	4.65
612.449	4.62
612.784	4.58
613.118	4.55
613.453	4.49
613.788	4.4
614.123	4.33
614.457	4.25
614.792	4.21
615.126	4.18
615.461	4.15
615.795	4.14
616.13	4.13
616.464	4.13
616.798	4.12
617.132	4.09
617.467	4.07
617.801	3.98
618.135	3.98
618.469	3.93
618.803	3.88
619.137	3.88
619.471	3.85
619.805	3.82
620.139	3.81
620.472	3.82
620.806	3.81
621.14	3.82
621.473	3.83
621.807	3.81
622.141	3.8
622.474	3.77
622.808	3.75
623.141	3.76
623.474	3.77
623.808	3.76
624.141	3.77
624.474	3.76
624.807	3.81
625.141	3.81
625.474	3.8
625.807	3.8
626.14	3.8
626.473	3.8
626.806	3.83
627.138	3.84
627.471	3.81
627.804	3.83
628.137	3.82
628.469	3.8
628.802	3.77
629.135	3.74
629.467	3.72
629.8	3.69
630.132	3.69
630.465	3.66
630.797	3.64
631.129	3.62
631.461	3.62
631.794	3.6
632.126	3.59
632.458	3.62
632.79	3.64
633.122	3.65
633.454	3.65
633.786	3.63
634.118	3.59
634.45	3.58
634.781	3.52
635.113	3.48
635.445	3.46
635.777	3.47
636.108	3.49
636.44	3.5
636.771	3.48
637.103	3.45
637.434	3.41
637.765	3.42
638.097	3.37
638.428	3.32
638.759	3.27
639.09	3.21
639.422	3.15
639.753	3.13
640.084	3.11
640.415	3.09
640.746	3.04
641.077	3
641.407	2.97
641.738	2.98
642.069	2.99
642.4	2.97
642.73	2.98
643.061	2.93
643.392	2.9
643.722	2.93
644.053	2.9
644.383	2.89
644.713	2.83
645.044	2.82
645.374	2.81
645.704	2.8
646.034	2.85
646.365	2.87
646.695	2.84
647.025	2.81
647.355	2.79
647.685	2.8
648.015	2.88
648.344	2.92
648.674	2.93
649.004	2.95
649.334	2.96
649.663	2.96
649.993	2.98
650.323	2.99
650.652	2.98
650.982	2.95
651.311	2.91
651.64	2.91
651.97	2.9
652.299	2.91
652.628	2.93
652.958	2.91
