Data from pcis_p_h3_p3_Reflection_5.txt Node
Date: Wed Jul 12 17:53:35 ART 2017
User: rodoncho
Spectrometer: USB2E3644
Trigger mode: 4
Integration Time (sec): 6.000000E-2
Scans to average: 10
Electric dark correction enabled: true
Nonlinearity correction enabled: false
Boxcar width: 10
XAxis mode: Wavelengths
Number of Pixels in Spectrum: 2048
>>>>>Begin Spectral Data<<<<<
178.315	72.39
178.696	86.11
179.076	108.04
179.457	114.14
179.838	107.62
180.218	-255.56
180.599	104.94
180.979	64.71
181.36	134.92
181.74	-4.94
182.121	139.64
182.501	108.27
182.881	116.06
183.262	114.41
183.642	42.34
184.022	95.98
184.402	109.67
184.783	107.93
185.163	107.03
185.543	94.76
185.923	93.02
186.303	99.66
186.683	101.88
187.063	102.03
187.443	99.42
187.823	97.25
188.203	96.81
188.583	93.29
188.963	93.96
189.343	96.37
189.723	98.19
190.102	93.58
190.482	96.48
190.862	93.64
191.242	96.02
191.621	93.07
192.001	90.97
192.38	91.91
192.76	91.8
193.14	89.93
193.519	92.28
193.898	93.8
194.278	96.61
194.657	98.23
195.037	100.79
195.416	101.21
195.795	102.61
196.175	103
196.554	103.99
196.933	105.46
197.312	105.69
197.692	106.3
198.071	105.99
198.45	104.38
198.829	104.14
199.208	104.08
199.587	105.68
199.966	107.05
200.345	106.62
200.724	105.96
201.103	107.22
201.482	106.6
201.86	105.44
202.239	102.09
202.618	100.8
202.997	99.94
203.375	100.41
203.754	98.91
204.133	98.84
204.511	99.49
204.89	99.4
205.269	99.31
205.647	100.3
206.026	100.91
206.404	102.26
206.782	103.51
207.161	102.82
207.539	103.49
207.918	103.66
208.296	104.77
208.674	106.14
209.052	106.32
209.431	106.33
209.809	106.11
210.187	107.61
210.565	108.09
210.943	109.52
211.321	110.07
211.699	111.52
212.077	112.97
212.455	112.55
212.833	112.33
213.211	112.01
213.589	111.92
213.967	111.97
214.345	111.3
214.722	109.88
215.1	110.29
215.478	109.96
215.855	109.53
216.233	108.38
216.611	108.36
216.988	108.72
217.366	108.64
217.743	108.87
218.121	108.95
218.498	108.37
218.876	106.67
219.253	107.86
219.631	108.25
220.008	108.04
220.385	109.66
220.762	109.6
221.14	109.09
221.517	108.81
221.894	110.13
222.271	111.53
222.648	111.41
223.025	111.43
223.402	111.57
223.78	111.62
224.157	111.99
224.533	112.1
224.91	111.81
225.287	111.8
225.664	112.49
226.041	113.13
226.418	114.48
226.795	113.95
227.171	112.54
227.548	112.8
227.925	113.04
228.301	112.28
228.678	111.43
229.055	111.67
229.431	111.04
229.808	110.47
230.184	110.13
230.561	110.89
230.937	110.84
231.313	110.9
231.69	112.19
232.066	111.55
232.442	112.28
232.819	112.08
233.195	112.36
233.571	112.41
233.947	111.68
234.323	110.85
234.699	112.47
235.075	112.69
235.451	110.77
235.827	110
236.203	110.63
236.579	112.35
236.955	113.92
237.331	116.41
237.707	119.05
238.083	122.3
238.459	126.09
238.834	132.7
239.21	138.25
239.586	142.07
239.961	148.37
240.337	152.11
240.713	157.57
241.088	160.4
241.464	165.44
241.839	171.78
242.215	180.06
242.59	194.31
242.965	228.03
243.341	305.95
243.716	455.79
244.091	797.29
244.467	1739.24
244.842	23258.97
245.217	-2663.42
245.592	-1817.76
245.967	-1635.12
246.343	-1760.95
246.718	-2683.19
247.093	-3298.57
247.468	-2587.96
247.843	-2077.63
248.218	-1465.24
248.593	-889.24
248.967	-628.04
249.342	-572.48
249.717	-574.52
250.092	-605.33
250.467	-674.13
250.841	-935.39
251.216	-3965.02
251.591	1825.8
251.965	824.85
252.34	589.05
252.714	497.64
253.089	418.49
253.463	403.69
253.838	408.05
254.212	430.93
254.587	491.55
254.961	607.88
255.335	964.42
255.71	-28324.24
256.084	-636.37
256.458	-319.92
256.832	-211.45
257.206	-171.73
257.581	-153.16
257.955	-141.17
258.329	-132.75
258.703	-124.86
259.077	-117.39
259.451	-112.77
259.825	-107.4
260.199	-103.03
260.572	-100.54
260.946	-95.5
261.32	-93.95
261.694	-90.53
262.068	-88.2
262.441	-86.64
262.815	-86.09
263.189	-87.07
263.562	-90.78
263.936	-104.29
264.309	-126.7
264.683	-152.5
265.056	-169.13
265.43	-179.52
265.803	-179.64
266.176	-171.46
266.55	-171.26
266.923	-169.07
267.296	-160.57
267.67	-149.96
268.043	-139.07
268.416	-127.57
268.789	-116.95
269.162	-104.38
269.535	-97.59
269.908	-92.55
270.281	-89.67
270.654	-90.42
271.027	-94.07
271.4	-96.2
271.773	-95.96
272.146	-94.42
272.519	-91.69
272.891	-89
273.264	-86.97
273.637	-85.39
274.01	-86.36
274.382	-85.26
274.755	-83.01
275.127	-82.43
275.5	-82.64
275.872	-81
276.245	-79.72
276.617	-80.74
276.99	-85.05
277.362	-87.15
277.734	-87.59
278.107	-86.55
278.479	-81.91
278.851	-76.68
279.223	-73.64
279.596	-71.18
279.968	-69.69
280.34	-69.74
280.712	-67.7
281.084	-64.16
281.456	-59.11
281.828	-55.13
282.2	-50.94
282.572	-48.3
282.944	-46.2
283.315	-45.09
283.687	-44.81
284.059	-44.08
284.431	-43.21
284.802	-42.3
285.174	-41.08
285.546	-40.07
285.917	-39.64
286.289	-38.65
286.66	-37.46
287.032	-36.87
287.403	-36.05
287.775	-35.42
288.146	-35.33
288.518	-35.6
288.889	-35.53
289.26	-36.25
289.632	-36.75
290.003	-37.84
290.374	-38.65
290.745	-39.13
291.116	-38.94
291.487	-38.19
291.858	-37.84
292.229	-37.58
292.6	-36.03
292.971	-34.98
293.342	-33.04
293.713	-31.09
294.084	-30.25
294.455	-29.97
294.826	-29.24
295.196	-29.14
295.567	-28.87
295.938	-28.32
296.308	-28.4
296.679	-27.68
297.05	-27.4
297.42	-26.59
297.791	-25.7
298.161	-24.95
298.532	-24.65
298.902	-24.43
299.272	-24.06
299.643	-23.75
300.013	-23.42
300.383	-22.98
300.754	-22.78
301.124	-23.39
301.494	-23.93
301.864	-23.65
302.234	-23.82
302.604	-24.56
302.974	-24.7
303.344	-24.87
303.714	-24.79
304.084	-24
304.454	-24.06
304.824	-23.3
305.194	-22.83
305.563	-22.55
305.933	-21.73
306.303	-20.26
306.673	-19.28
307.042	-18.56
307.412	-17.54
307.781	-16.05
308.151	-15.4
308.521	-14.7
308.89	-14.28
309.259	-13.75
309.629	-13.35
309.998	-13.06
310.368	-12.55
310.737	-12.24
311.106	-11.7
311.475	-10.92
311.845	-10.49
312.214	-10.06
312.583	-9.96
312.952	-9.75
313.321	-9.36
313.69	-9.48
314.059	-9.95
314.428	-10.16
314.797	-10.53
315.166	-11.37
315.535	-12.07
315.904	-12.59
316.272	-12.98
316.641	-13.17
317.01	-13.36
317.379	-13.52
317.747	-13.44
318.116	-13.07
318.484	-12.96
318.853	-12.65
319.221	-12.78
319.59	-12.51
319.958	-12.29
320.327	-11.9
320.695	-11.67
321.063	-11.47
321.432	-10.74
321.8	-9.98
322.168	-9.24
322.536	-8.17
322.905	-6.91
323.273	-6.2
323.641	-5.64
324.009	-5.46
324.377	-4.77
324.745	-4.27
325.113	-4.16
325.481	-3.73
325.849	-3.32
326.216	-2.74
326.584	-2.54
326.952	-2.29
327.32	-1.89
327.687	-1.56
328.055	-1.24
328.423	-0.9
328.79	-0.8
329.158	-0.81
329.525	-0.55
329.893	-0.14
330.26	0.06
330.628	-0.02
330.995	0.11
331.362	0.4
331.73	0.83
332.097	1
332.464	1.32
332.831	1.74
333.199	1.89
333.566	2
333.933	2.06
334.3	2.3
334.667	2.64
335.034	2.74
335.401	2.89
335.768	2.9
336.135	3.02
336.502	3.26
336.868	3.54
337.235	3.79
337.602	3.85
337.969	4.05
338.335	4.35
338.702	4.52
339.069	4.64
339.435	4.84
339.802	4.88
340.168	5.01
340.535	5.24
340.901	5.43
341.267	5.69
341.634	5.93
342	6.1
342.366	6.25
342.733	6.43
343.099	6.67
343.465	6.96
343.831	7.16
344.197	7.32
344.563	7.44
344.929	7.52
345.295	7.58
345.661	7.65
346.027	7.79
346.393	7.9
346.759	7.92
347.125	8.01
347.491	8.18
347.856	8.3
348.222	8.25
348.588	8.42
348.953	8.48
349.319	8.69
349.684	8.84
350.05	8.98
350.415	9.16
350.781	9.24
351.146	9.34
351.512	9.39
351.877	9.52
352.242	9.61
352.608	9.65
352.973	9.75
353.338	9.8
353.703	9.94
354.068	10.15
354.433	10.44
354.798	10.64
355.164	10.85
355.528	10.88
355.893	11.05
356.258	11.14
356.623	11.29
356.988	11.34
357.353	11.48
357.718	11.65
358.082	11.67
358.447	11.75
358.812	11.77
359.176	11.83
359.541	11.83
359.905	11.92
360.27	12.07
360.634	12.19
360.999	12.24
361.363	12.29
361.728	12.25
362.092	12.22
362.456	12.23
362.821	12.2
363.185	12.33
363.549	12.43
363.913	12.52
364.277	12.52
364.641	12.51
365.005	12.5
365.369	12.41
365.733	12.47
366.097	12.6
366.461	12.67
366.825	12.72
367.189	12.91
367.553	12.99
367.916	13.02
368.28	13.07
368.644	13.26
369.007	13.28
369.371	13.38
369.734	13.44
370.098	13.52
370.461	13.61
370.825	13.63
371.188	13.72
371.552	13.73
371.915	13.84
372.278	14.04
372.642	14.18
373.005	14.36
373.368	14.4
373.731	14.37
374.094	14.44
374.457	14.48
374.82	14.47
375.183	14.48
375.546	14.54
375.909	14.6
376.272	14.57
376.635	14.62
376.998	14.64
377.361	14.65
377.723	14.67
378.086	14.76
378.449	14.78
378.811	14.85
379.174	14.88
379.537	14.88
379.899	14.88
380.262	14.9
380.624	14.87
380.987	14.93
381.349	14.99
381.711	15.02
382.074	15.03
382.436	15.09
382.798	15.08
383.16	15.06
383.522	15.06
383.884	15.1
384.247	15.12
384.609	15.16
384.971	15.24
385.333	15.25
385.695	15.2
386.056	15.21
386.418	15.14
386.78	15.2
387.142	15.18
387.504	15.13
387.865	15.13
388.227	15.1
388.589	15.09
388.95	15.06
389.312	15.02
389.673	15.02
390.035	14.94
390.396	14.93
390.758	14.9
391.119	14.86
391.48	14.78
391.842	14.75
392.203	14.68
392.564	14.6
392.925	14.54
393.286	14.52
393.648	14.5
394.009	14.49
394.37	14.4
394.731	14.36
395.092	14.3
395.452	14.22
395.813	14.18
396.174	14.14
396.535	14.1
396.896	14.04
397.257	14.01
397.617	14.02
397.978	14.01
398.338	14
398.699	13.97
399.06	13.97
399.42	13.9
399.781	13.88
400.141	13.82
400.501	13.81
400.862	13.76
401.222	13.7
401.582	13.67
401.943	13.65
402.303	13.65
402.663	13.63
403.023	13.61
403.383	13.59
403.743	13.55
404.103	13.56
404.463	13.58
404.823	13.59
405.183	13.55
405.543	13.52
405.903	13.5
406.262	13.47
406.622	13.47
406.982	13.47
407.342	13.45
407.701	13.48
408.061	13.45
408.42	13.44
408.78	13.43
409.139	13.41
409.499	13.4
409.858	13.42
410.217	13.4
410.577	13.4
410.936	13.39
411.295	13.36
411.655	13.32
412.014	13.28
412.373	13.21
412.732	13.17
413.091	13.1
413.45	13.05
413.809	12.97
414.168	12.88
414.527	12.79
414.886	12.69
415.245	12.59
415.603	12.5
415.962	12.38
416.321	12.29
416.679	12.2
417.038	12.06
417.397	11.91
417.755	11.78
418.114	11.66
418.472	11.56
418.831	11.47
419.189	11.39
419.547	11.3
419.906	11.21
420.264	11.12
420.622	11.04
420.981	10.96
421.339	10.88
421.697	10.81
422.055	10.73
422.413	10.66
422.771	10.62
423.129	10.58
423.487	10.56
423.845	10.54
424.203	10.51
424.56	10.5
424.918	10.49
425.276	10.51
425.634	10.53
425.991	10.53
426.349	10.54
426.707	10.55
427.064	10.56
427.422	10.59
427.779	10.6
428.137	10.67
428.494	10.7
428.851	10.78
429.209	10.82
429.566	10.87
429.923	10.9
430.28	10.91
430.637	10.91
430.995	10.92
431.352	10.94
431.709	10.95
432.066	10.98
432.423	10.99
432.78	11.02
433.137	11.04
433.493	11.05
433.85	11.08
434.207	11.09
434.564	11.11
434.92	11.12
435.277	11.14
435.634	11.13
435.99	11.13
436.347	11.13
436.703	11.13
437.06	11.15
437.416	11.16
437.773	11.17
438.129	11.16
438.485	11.17
438.841	11.15
439.198	11.14
439.554	11.14
439.91	11.12
440.266	11.08
440.622	11.05
440.978	11.04
441.334	10.99
441.69	10.94
442.046	10.88
442.402	10.81
442.758	10.73
443.113	10.66
443.469	10.59
443.825	10.51
444.181	10.46
444.536	10.4
444.892	10.34
445.247	10.27
445.603	10.24
445.958	10.18
446.314	10.14
446.669	10.09
447.025	10.03
447.38	10
447.735	9.94
448.09	9.91
448.446	9.87
448.801	9.82
449.156	9.79
449.511	9.76
449.866	9.75
450.221	9.74
450.576	9.72
450.931	9.71
451.286	9.71
451.641	9.69
451.995	9.69
452.35	9.7
452.705	9.74
453.06	9.75
453.414	9.75
453.769	9.76
454.123	9.78
454.478	9.8
454.832	9.81
455.187	9.81
455.541	9.8
455.896	9.79
456.25	9.8
456.604	9.82
456.958	9.83
457.313	9.82
457.667	9.87
458.021	9.9
458.375	9.94
458.729	10
459.083	10.07
459.437	10.11
459.791	10.16
460.145	10.21
460.499	10.27
460.852	10.33
461.206	10.4
461.56	10.48
461.914	10.56
462.267	10.65
462.621	10.76
462.974	10.89
463.328	11.05
463.681	11.2
464.035	11.33
464.388	11.5
464.742	11.68
465.095	11.8
465.448	11.95
465.801	12.07
466.155	12.18
466.508	12.29
466.861	12.38
467.214	12.48
467.567	12.58
467.92	12.67
468.273	12.76
468.626	12.84
468.979	12.91
469.332	12.97
469.684	13.04
470.037	13.09
470.39	13.15
470.743	13.2
471.095	13.26
471.448	13.33
471.8	13.36
472.153	13.38
472.505	13.41
472.858	13.4
473.21	13.38
473.562	13.34
473.915	13.3
474.267	13.24
474.619	13.17
474.971	13.08
475.324	12.98
475.676	12.9
476.028	12.8
476.38	12.71
476.732	12.59
477.084	12.48
477.436	12.38
477.787	12.24
478.139	12.11
478.491	11.96
478.843	11.79
479.195	11.63
479.546	11.43
479.898	11.2
480.249	10.98
480.601	10.81
480.952	10.66
481.304	10.55
481.655	10.48
482.007	10.41
482.358	10.36
482.709	10.32
483.061	10.27
483.412	10.24
483.763	10.2
484.114	10.19
484.465	10.18
484.816	10.16
485.167	10.16
485.518	10.16
485.869	10.17
486.22	10.19
486.571	10.22
486.922	10.25
487.272	10.3
487.623	10.38
487.974	10.49
488.324	10.62
488.675	10.75
489.025	10.86
489.376	10.97
489.726	11.08
490.077	11.2
490.427	11.32
490.778	11.45
491.128	11.62
491.478	11.8
491.828	12.01
492.179	12.23
492.529	12.47
492.879	12.72
493.229	12.96
493.579	13.18
493.929	13.4
494.279	13.63
494.629	13.91
494.979	14.21
495.328	14.57
495.678	14.96
496.028	15.37
496.378	15.75
496.727	16.12
497.077	16.46
497.426	16.78
497.776	17.07
498.125	17.37
498.475	17.65
498.824	17.93
499.174	18.21
499.523	18.48
499.872	18.75
500.221	19.03
500.571	19.33
500.92	19.62
501.269	19.93
501.618	20.21
501.967	20.49
502.316	20.78
502.665	21.04
503.014	21.29
503.363	21.52
503.711	21.75
504.06	21.97
504.409	22.18
504.758	22.38
505.106	22.61
505.455	22.79
505.803	22.96
506.152	23.1
506.5	23.25
506.849	23.39
507.197	23.54
507.546	23.67
507.894	23.78
508.242	23.93
508.59	24.04
508.939	24.14
509.287	24.24
509.635	24.34
509.983	24.41
510.331	24.49
510.679	24.59
511.027	24.65
511.375	24.74
511.723	24.84
512.07	24.93
512.418	25.01
512.766	25.1
513.114	25.19
513.461	25.27
513.809	25.34
514.156	25.42
514.504	25.5
514.851	25.59
515.199	25.67
515.546	25.72
515.893	25.79
516.241	25.85
516.588	25.91
516.935	25.95
517.282	26.02
517.63	26.08
517.977	26.13
518.324	26.19
518.671	26.21
519.018	26.25
519.365	26.27
519.711	26.31
520.058	26.33
520.405	26.35
520.752	26.36
521.099	26.42
521.445	26.46
521.792	26.47
522.138	26.51
522.485	26.57
522.832	26.62
523.178	26.66
523.524	26.71
523.871	26.74
524.217	26.76
524.563	26.78
524.91	26.81
525.256	26.85
525.602	26.89
525.948	26.91
526.294	26.9
526.64	26.9
526.986	26.9
527.332	26.91
527.678	26.91
528.024	26.93
528.37	26.92
528.716	26.93
529.061	26.95
529.407	26.96
529.753	26.95
530.098	26.95
530.444	26.96
530.789	26.98
531.135	26.99
531.48	27.03
531.826	27.06
532.171	27.07
532.516	27.07
532.862	27.09
533.207	27.12
533.552	27.16
533.897	27.19
534.242	27.22
534.587	27.25
534.932	27.27
535.277	27.28
535.622	27.29
535.967	27.31
536.312	27.34
536.657	27.36
537.001	27.41
537.346	27.44
537.691	27.46
538.035	27.43
538.38	27.44
538.724	27.42
539.069	27.39
539.413	27.4
539.758	27.38
540.102	27.38
540.446	27.36
540.791	27.34
541.135	27.36
541.479	27.34
541.823	27.34
542.167	27.35
542.512	27.36
542.856	27.35
543.2	27.34
543.543	27.32
543.887	27.3
544.231	27.29
544.575	27.28
544.919	27.27
545.262	27.28
545.606	27.26
545.95	27.27
546.293	27.28
546.637	27.25
546.98	27.26
547.324	27.24
547.667	27.25
548.011	27.24
548.354	27.22
548.697	27.21
549.04	27.19
549.384	27.17
549.727	27.14
550.07	27.14
550.413	27.11
550.756	27.08
551.099	27.06
551.442	27.05
551.785	27.02
552.128	26.98
552.47	26.96
552.813	26.95
553.156	26.9
553.499	26.87
553.841	26.84
554.184	26.79
554.526	26.76
554.869	26.72
555.211	26.7
555.554	26.65
555.896	26.62
556.238	26.57
556.581	26.51
556.923	26.47
557.265	26.38
557.607	26.36
557.949	26.3
558.291	26.26
558.633	26.18
558.975	26.13
559.317	26.1
559.659	26.09
560.001	26.03
560.343	25.97
560.685	25.93
561.026	25.88
561.368	25.83
561.71	25.74
562.051	25.69
562.393	25.68
562.734	25.67
563.076	25.61
563.417	25.57
563.759	25.54
564.1	25.51
564.441	25.48
564.782	25.42
565.124	25.39
565.465	25.36
565.806	25.34
566.147	25.3
566.488	25.24
566.829	25.19
567.17	25.13
567.511	25.11
567.851	25.06
568.192	25.01
568.533	24.97
568.874	24.96
569.214	24.91
569.555	24.8
569.895	24.72
570.236	24.66
570.576	24.58
570.917	24.51
571.257	24.44
571.598	24.4
571.938	24.37
572.278	24.33
572.618	24.3
572.959	24.22
573.299	24.18
573.639	24.15
573.979	24.09
574.319	24.02
574.659	23.96
574.999	23.89
575.339	23.83
575.678	23.77
576.018	23.67
576.358	23.58
576.698	23.55
577.037	23.47
577.377	23.41
577.716	23.36
578.056	23.31
578.395	23.21
578.735	23.1
579.074	23.01
579.413	22.91
579.753	22.8
580.092	22.77
580.431	22.7
580.77	22.62
581.109	22.53
581.448	22.47
581.787	22.4
582.126	22.29
582.465	22.23
582.804	22.14
583.143	22.09
583.482	22.05
583.82	21.95
584.159	21.9
584.498	21.82
584.836	21.77
585.175	21.71
585.514	21.66
585.852	21.66
586.19	21.61
586.529	21.56
586.867	21.52
587.205	21.42
587.544	21.38
587.882	21.33
588.22	21.31
588.558	21.23
588.896	21.17
589.234	21.12
589.572	21.08
589.91	20.99
590.248	20.94
590.586	20.87
590.924	20.85
591.262	20.8
591.599	20.75
591.937	20.67
592.275	20.58
592.612	20.53
592.95	20.47
593.287	20.43
593.625	20.4
593.962	20.34
594.299	20.31
594.637	20.23
594.974	20.16
595.311	20.1
595.648	20.07
595.985	20.03
596.322	19.99
596.659	19.93
596.996	19.92
597.333	19.86
597.67	19.79
598.007	19.74
598.344	19.69
598.681	19.63
599.017	19.58
599.354	19.54
599.691	19.47
600.027	19.38
600.364	19.29
600.7	19.23
601.037	19.14
601.373	19.08
601.71	19.04
602.046	18.98
602.382	18.92
602.718	18.87
603.054	18.81
603.391	18.75
603.727	18.71
604.063	18.64
604.399	18.6
604.735	18.57
605.071	18.55
605.406	18.53
605.742	18.52
606.078	18.48
606.414	18.44
606.749	18.4
607.085	18.35
607.421	18.31
607.756	18.24
608.092	18.17
608.427	18.08
608.762	17.97
609.098	17.91
609.433	17.82
609.768	17.74
610.104	17.68
610.439	17.65
610.774	17.58
611.109	17.52
611.444	17.45
611.779	17.39
612.114	17.28
612.449	17.2
612.784	17.11
613.118	17
613.453	16.89
613.788	16.8
614.123	16.71
614.457	16.62
614.792	16.55
615.126	16.47
615.461	16.38
615.795	16.33
616.13	16.23
616.464	16.18
616.798	16.14
617.132	16.1
617.467	16.05
617.801	15.97
618.135	15.93
618.469	15.89
618.803	15.86
619.137	15.81
619.471	15.75
619.805	15.65
620.139	15.62
620.472	15.55
620.806	15.51
621.14	15.46
621.473	15.39
621.807	15.31
622.141	15.23
622.474	15.21
622.808	15.19
623.141	15.17
623.474	15.17
623.808	15.14
624.141	15.14
624.474	15.08
624.807	15.08
625.141	15.01
625.474	14.99
625.807	14.94
626.14	14.93
626.473	14.9
626.806	14.9
627.138	14.88
627.471	14.87
627.804	14.81
628.137	14.75
628.469	14.67
628.802	14.63
629.135	14.61
629.467	14.56
629.8	14.49
630.132	14.44
630.465	14.4
630.797	14.33
631.129	14.24
631.461	14.24
631.794	14.22
632.126	14.16
632.458	14.11
632.79	14.08
633.122	14.01
633.454	13.97
633.786	13.93
634.118	13.88
634.45	13.83
634.781	13.8
635.113	13.78
635.445	13.8
635.777	13.81
636.108	13.79
636.44	13.75
636.771	13.7
637.103	13.64
637.434	13.57
637.765	13.56
638.097	13.54
638.428	13.4
638.759	13.36
639.09	13.35
639.422	13.29
639.753	13.22
640.084	13.17
640.415	13.08
640.746	13.05
641.077	13.01
641.407	12.97
641.738	12.91
642.069	12.89
642.4	12.81
642.73	12.75
643.061	12.72
643.392	12.73
643.722	12.77
644.053	12.71
644.383	12.66
644.713	12.56
645.044	12.51
