Data from pcis_p_h3_p3_Reflection_3.txt Node
Date: Wed Jul 12 17:53:22 ART 2017
User: rodoncho
Spectrometer: USB2E3644
Trigger mode: 4
Integration Time (sec): 6.000000E-2
Scans to average: 10
Electric dark correction enabled: true
Nonlinearity correction enabled: false
Boxcar width: 10
XAxis mode: Wavelengths
Number of Pixels in Spectrum: 2048
>>>>>Begin Spectral Data<<<<<
178.315	33
178.696	23.61
179.076	20.8
179.457	-26.77
179.838	-112.38
180.218	3144.44
180.599	516.05
180.979	17.65
181.36	292.06
181.74	-49.38
182.121	23.42
182.501	157.18
182.881	187.15
183.262	214.41
183.642	-19.82
184.022	99.6
184.402	115.01
184.783	132.25
185.163	122.64
185.543	103.52
185.923	104.32
186.303	98.4
186.683	94.29
187.063	96.13
187.443	94.36
187.823	86.32
188.203	88.59
188.583	94.85
188.963	103.68
189.343	105.91
189.723	109.85
190.102	111.16
190.482	121.56
190.862	118.19
191.242	117.68
191.621	117.36
192.001	114.44
192.38	113.1
192.76	110.86
193.14	109.57
193.519	113.11
193.898	115.94
194.278	117.67
194.657	118.63
195.037	118.14
195.416	118.05
195.795	122.21
196.175	121.79
196.554	121.9
196.933	122.19
197.312	121.82
197.692	121.68
198.071	121.03
198.45	117.36
198.829	117.19
199.208	115.38
199.587	116.18
199.966	116.62
200.345	115.01
200.724	113.98
201.103	114.35
201.482	114.32
201.86	113.09
202.239	111.73
202.618	111.82
202.997	113.04
203.375	112.69
203.754	112.05
204.133	111.54
204.511	111.39
204.89	111.11
205.269	112.07
205.647	111.97
206.026	112.46
206.404	112.91
206.782	113.81
207.161	112.47
207.539	112
207.918	111.14
208.296	112.46
208.674	113.04
209.052	112.82
209.431	112.35
209.809	111.52
210.187	110.37
210.565	108.61
210.943	108.75
211.321	108.66
211.699	107.84
212.077	109.16
212.455	108.53
212.833	107.95
213.211	107.55
213.589	107.6
213.967	107.12
214.345	106.97
214.722	106.96
215.1	107.88
215.478	108.54
215.855	108.96
216.233	107.5
216.611	107.63
216.988	108
217.366	108.6
217.743	109.21
218.121	111.07
218.498	111.78
218.876	110.1
219.253	110.86
219.631	112.97
220.008	113.47
220.385	114.47
220.762	114.12
221.14	113.35
221.517	113.85
221.894	114.61
222.271	115.58
222.648	115.04
223.025	115.29
223.402	114.58
223.78	114.87
224.157	116.18
224.533	116.04
224.91	115.96
225.287	115.93
225.664	117.08
226.041	118.62
226.418	120.01
226.795	119.87
227.171	119.47
227.548	118.67
227.925	117.8
228.301	116.77
228.678	116.2
229.055	116.71
229.431	115.87
229.808	115.32
230.184	114.6
230.561	115.68
230.937	116.99
231.313	118.36
231.69	118.91
232.066	118.42
232.442	119.55
232.819	120.36
233.195	120.81
233.571	120.74
233.947	119.72
234.323	118.75
234.699	119.59
235.075	119.44
235.451	118.12
235.827	119.4
236.203	120.47
236.579	123.14
236.955	124.79
237.331	128.08
237.707	131.2
238.083	135.58
238.459	138.2
238.834	144.14
239.21	150.13
239.586	153.45
239.961	158.63
240.337	162.91
240.713	169.02
241.088	171.19
241.464	175.61
241.839	182.88
242.215	193.89
242.59	210.64
242.965	248.41
243.341	333.53
243.716	497.59
244.091	877.87
244.467	1900.95
244.842	25389.74
245.217	-2883.78
245.592	-1970.46
245.967	-1757.58
246.343	-1894.1
246.718	-2882.32
247.093	-3510.39
247.468	-2753.5
247.843	-2212.53
248.218	-1566.19
248.593	-948.9
248.967	-668.97
249.342	-611.63
249.717	-607.12
250.092	-630.57
250.467	-693.96
250.841	-952.1
251.216	-4013.17
251.591	1841.05
251.965	833.76
252.34	594.68
252.714	504.56
253.089	431.23
253.463	417.02
253.838	422.59
254.212	446.55
254.587	510.03
254.961	635.66
255.335	1019.16
255.71	-30060.61
256.084	-675.5
256.458	-342.87
256.832	-228.66
257.206	-186.16
257.581	-166.04
257.955	-155.03
258.329	-148.17
258.703	-141.31
259.077	-132.6
259.451	-126.61
259.825	-120.71
260.199	-115.98
260.572	-112.58
260.946	-105.15
261.32	-103.69
261.694	-100.73
262.068	-98.73
262.441	-97.51
262.815	-95.56
263.189	-96.06
263.562	-100.19
263.936	-114.62
264.309	-137.75
264.683	-165.91
265.056	-184.79
265.43	-196.67
265.803	-195.21
266.176	-186.74
266.55	-185.68
266.923	-184.7
267.296	-175.53
267.67	-163.07
268.043	-152.07
268.416	-139.14
268.789	-127.61
269.162	-114.24
269.535	-106.66
269.908	-101.38
270.281	-97.8
270.654	-97.73
271.027	-100.45
271.4	-102.47
271.773	-102.09
272.146	-100.66
272.519	-97.66
272.891	-94.58
273.264	-92.86
273.637	-91.24
274.01	-91.47
274.382	-89.92
274.755	-87.77
275.127	-87
275.5	-87.4
275.872	-86.27
276.245	-85.62
276.617	-87.57
276.99	-91.28
277.362	-93
277.734	-93.54
278.107	-92.28
278.479	-88.63
278.851	-85.07
279.223	-81.87
279.596	-79.45
279.968	-77.41
280.34	-77.28
280.712	-75.1
281.084	-70.9
281.456	-65.6
281.828	-61.21
282.2	-57
282.572	-53.47
282.944	-51.49
283.315	-50.17
283.687	-49.55
284.059	-49.2
284.431	-48.14
284.802	-47.38
285.174	-46.21
285.546	-45.01
285.917	-44.65
286.289	-43.53
286.66	-42.33
287.032	-41.73
287.403	-40.98
287.775	-40.6
288.146	-40.18
288.518	-40.29
288.889	-40.87
289.26	-42.5
289.632	-43.78
290.003	-45.51
290.374	-47.14
290.745	-47.53
291.116	-47.21
291.487	-45.94
291.858	-44.68
292.229	-44.11
292.6	-42.62
292.971	-41.89
293.342	-40.33
293.713	-38.38
294.084	-37.71
294.455	-37.05
294.826	-36.43
295.196	-36.66
295.567	-36.54
295.938	-35.85
296.308	-35.51
296.679	-34.6
297.05	-33.8
297.42	-33.14
297.791	-32.03
298.161	-31.08
298.532	-30.92
298.902	-30.57
299.272	-30.36
299.643	-29.96
300.013	-29.58
300.383	-29.01
300.754	-28.57
301.124	-28.58
301.494	-28.67
301.864	-28.24
302.234	-28.31
302.604	-28.59
302.974	-27.98
303.344	-27.76
303.714	-27.6
304.084	-27.08
304.454	-26.41
304.824	-25.69
305.194	-25.05
305.563	-24.61
305.933	-23.56
306.303	-21.71
306.673	-20.83
307.042	-19.9
307.412	-19.08
307.781	-17.96
308.151	-17.27
308.521	-16.5
308.89	-16.09
309.259	-15.56
309.629	-15.14
309.998	-14.74
310.368	-14.5
310.737	-14.32
311.106	-13.86
311.475	-13.28
311.845	-12.82
312.214	-12.63
312.583	-12.29
312.952	-12.05
313.321	-12.03
313.69	-12.12
314.059	-12.73
314.428	-12.91
314.797	-13.58
315.166	-14.29
315.535	-14.64
315.904	-14.73
316.272	-15.02
316.641	-15.11
317.01	-15.16
317.379	-15.39
317.747	-15.27
318.116	-14.72
318.484	-14.14
318.853	-13.75
319.221	-13.67
319.59	-13.49
319.958	-13.28
320.327	-13.2
320.695	-12.73
321.063	-12.03
321.432	-11.39
321.8	-10.84
322.168	-10.11
322.536	-8.91
322.905	-7.87
323.273	-7.6
323.641	-7.45
324.009	-7.41
324.377	-6.87
324.745	-6.53
325.113	-6.19
325.481	-5.9
325.849	-5.5
326.216	-5.17
326.584	-4.7
326.952	-4.41
327.32	-4.1
327.687	-3.72
328.055	-3.16
328.423	-2.74
328.79	-2.73
329.158	-2.69
329.525	-2.26
329.893	-2.12
330.26	-2.17
330.628	-2.28
330.995	-1.9
331.362	-1.57
331.73	-0.94
332.097	-0.77
332.464	-0.7
332.831	-0.53
333.199	-0.26
333.566	0.07
333.933	0.15
334.3	0.22
334.667	0.46
335.034	0.8
335.401	0.95
335.768	0.85
336.135	0.92
336.502	1.18
336.868	1.37
337.235	1.52
337.602	1.73
337.969	2.07
338.335	2.49
338.702	2.73
339.069	2.96
339.435	3.18
339.802	3.3
340.168	3.61
340.535	3.84
340.901	3.91
341.267	3.96
341.634	4.29
342	4.46
342.366	4.66
342.733	4.81
343.099	5.06
343.465	5.45
343.831	5.76
344.197	5.95
344.563	6.13
344.929	6.3
345.295	6.54
345.661	6.72
346.027	6.84
346.393	6.97
346.759	7.11
347.125	7.22
347.491	7.51
347.856	7.73
348.222	7.91
348.588	8.08
348.953	8.12
349.319	8.06
349.684	8.18
350.05	8.27
350.415	8.36
350.781	8.47
351.146	8.59
351.512	8.58
351.877	8.69
352.242	8.8
352.608	8.88
352.973	8.92
353.338	8.91
353.703	8.95
354.068	9.09
354.433	9.28
354.798	9.4
355.164	9.53
355.528	9.47
355.893	9.59
356.258	9.75
356.623	10.05
356.988	10.26
357.353	10.41
357.718	10.54
358.082	10.64
358.447	10.63
358.812	10.64
359.176	10.66
359.541	10.81
359.905	10.91
360.27	11.01
360.634	11.12
360.999	11.26
361.363	11.37
361.728	11.37
362.092	11.33
362.456	11.3
362.821	11.32
363.185	11.47
363.549	11.5
363.913	11.61
364.277	11.62
364.641	11.65
365.005	11.68
365.369	11.72
365.733	11.74
366.097	11.91
366.461	11.98
366.825	12.12
367.189	12.24
367.553	12.42
367.916	12.54
368.28	12.57
368.644	12.74
369.007	12.85
369.371	12.9
369.734	13.01
370.098	13.15
370.461	13.19
370.825	13.21
371.188	13.33
371.552	13.34
371.915	13.38
372.278	13.51
372.642	13.65
373.005	13.74
373.368	13.84
373.731	13.84
374.094	13.96
374.457	13.99
374.82	13.93
375.183	13.89
375.546	13.94
375.909	14.03
376.272	14.02
376.635	13.99
376.998	14.08
377.361	14.08
377.723	14.05
378.086	14.09
378.449	14.2
378.811	14.27
379.174	14.29
379.537	14.31
379.899	14.33
380.262	14.34
380.624	14.3
380.987	14.32
381.349	14.36
381.711	14.32
382.074	14.37
382.436	14.43
382.798	14.41
383.16	14.32
383.522	14.33
383.884	14.34
384.247	14.39
384.609	14.37
384.971	14.41
385.333	14.49
385.695	14.5
386.056	14.44
386.418	14.35
386.78	14.37
387.142	14.33
387.504	14.27
387.865	14.2
388.227	14.22
388.589	14.18
388.95	14.14
389.312	14.1
389.673	14.05
390.035	13.99
390.396	13.99
390.758	13.98
391.119	13.94
391.48	13.91
391.842	13.86
392.203	13.83
392.564	13.78
392.925	13.73
393.286	13.68
393.648	13.66
394.009	13.61
394.37	13.53
394.731	13.49
395.092	13.45
395.452	13.44
395.813	13.39
396.174	13.38
396.535	13.36
396.896	13.33
397.257	13.34
397.617	13.31
397.978	13.27
398.338	13.28
398.699	13.24
399.06	13.17
399.42	13.12
399.781	13.09
400.141	13.04
400.501	12.99
400.862	12.99
401.222	12.97
401.582	12.94
401.943	12.94
402.303	12.93
402.663	12.92
403.023	12.87
403.383	12.84
403.743	12.8
404.103	12.81
404.463	12.81
404.823	12.78
405.183	12.75
405.543	12.73
405.903	12.7
406.262	12.71
406.622	12.73
406.982	12.71
407.342	12.71
407.701	12.7
408.061	12.68
408.42	12.64
408.78	12.62
409.139	12.63
409.499	12.62
409.858	12.62
410.217	12.64
410.577	12.63
410.936	12.63
411.295	12.62
411.655	12.57
412.014	12.52
412.373	12.47
412.732	12.44
413.091	12.36
413.45	12.27
413.809	12.16
414.168	12.07
414.527	11.98
414.886	11.87
415.245	11.77
415.603	11.68
415.962	11.56
416.321	11.45
416.679	11.32
417.038	11.18
417.397	11.06
417.755	10.94
418.114	10.84
418.472	10.75
418.831	10.65
419.189	10.58
419.547	10.5
419.906	10.42
420.264	10.31
420.622	10.25
420.981	10.18
421.339	10.11
421.697	10.04
422.055	9.99
422.413	9.94
422.771	9.9
423.129	9.86
423.487	9.85
423.845	9.84
424.203	9.83
424.56	9.83
424.918	9.81
425.276	9.81
425.634	9.82
425.991	9.81
426.349	9.81
426.707	9.81
427.064	9.8
427.422	9.82
427.779	9.86
428.137	9.88
428.494	9.92
428.851	9.99
429.209	10.03
429.566	10.06
429.923	10.08
430.28	10.09
430.637	10.11
430.995	10.11
431.352	10.11
431.709	10.13
432.066	10.16
432.423	10.18
432.78	10.21
433.137	10.22
433.493	10.24
433.85	10.27
434.207	10.27
434.564	10.3
434.92	10.32
435.277	10.34
435.634	10.37
435.99	10.35
436.347	10.33
436.703	10.33
437.06	10.36
437.416	10.38
437.773	10.39
438.129	10.38
438.485	10.39
438.841	10.39
439.198	10.39
439.554	10.38
439.91	10.37
440.266	10.34
440.622	10.31
440.978	10.27
441.334	10.22
441.69	10.18
442.046	10.11
442.402	10.03
442.758	9.94
443.113	9.87
443.469	9.81
443.825	9.73
444.181	9.68
444.536	9.61
444.892	9.54
445.247	9.48
445.603	9.45
445.958	9.4
446.314	9.35
446.669	9.29
447.025	9.25
447.38	9.21
447.735	9.17
448.09	9.13
448.446	9.09
448.801	9.05
449.156	9.01
449.511	8.99
449.866	8.97
450.221	8.98
450.576	8.96
450.931	8.94
451.286	8.93
451.641	8.92
451.995	8.92
452.35	8.94
452.705	8.95
453.06	8.96
453.414	8.98
453.769	9
454.123	9
454.478	8.99
454.832	8.99
455.187	8.98
455.541	8.98
455.896	9
456.25	9.01
456.604	9.03
456.958	9.03
457.313	9.06
457.667	9.09
458.021	9.13
458.375	9.18
458.729	9.24
459.083	9.29
459.437	9.35
459.791	9.39
460.145	9.45
460.499	9.5
460.852	9.55
461.206	9.61
461.56	9.69
461.914	9.78
462.267	9.88
462.621	9.99
462.974	10.12
463.328	10.27
463.681	10.43
464.035	10.6
464.388	10.77
464.742	10.92
465.095	11.04
465.448	11.19
465.801	11.32
466.155	11.44
466.508	11.56
466.861	11.65
467.214	11.78
467.567	11.86
467.92	11.94
468.273	12.02
468.626	12.12
468.979	12.19
469.332	12.25
469.684	12.31
470.037	12.36
470.39	12.4
470.743	12.45
471.095	12.5
471.448	12.54
471.8	12.58
472.153	12.6
472.505	12.62
472.858	12.6
473.21	12.57
473.562	12.51
473.915	12.44
474.267	12.39
474.619	12.29
474.971	12.22
475.324	12.12
475.676	12.03
476.028	11.93
476.38	11.82
476.732	11.71
477.084	11.58
477.436	11.47
477.787	11.35
478.139	11.21
478.491	11.08
478.843	10.93
479.195	10.75
479.546	10.55
479.898	10.3
480.249	10.07
480.601	9.89
480.952	9.76
481.304	9.66
481.655	9.58
482.007	9.51
482.358	9.46
482.709	9.43
483.061	9.38
483.412	9.35
483.763	9.33
484.114	9.31
484.465	9.3
484.816	9.29
485.167	9.28
485.518	9.29
485.869	9.31
486.22	9.32
486.571	9.35
486.922	9.39
487.272	9.46
487.623	9.55
487.974	9.67
488.324	9.8
488.675	9.92
489.025	10.03
489.376	10.14
489.726	10.26
490.077	10.38
490.427	10.51
490.778	10.65
491.128	10.81
491.478	11
491.828	11.21
492.179	11.44
492.529	11.68
492.879	11.9
493.229	12.13
493.579	12.38
493.929	12.59
494.279	12.82
494.629	13.09
494.979	13.39
495.328	13.74
495.678	14.16
496.028	14.56
496.378	14.95
496.727	15.29
497.077	15.64
497.426	15.96
497.776	16.28
498.125	16.58
498.475	16.86
498.824	17.14
499.174	17.4
499.523	17.66
499.872	17.95
500.221	18.26
500.571	18.58
500.92	18.89
501.269	19.22
501.618	19.54
501.967	19.85
502.316	20.15
502.665	20.44
503.014	20.71
503.363	20.98
503.711	21.24
504.06	21.5
504.409	21.72
504.758	21.97
505.106	22.18
505.455	22.4
505.803	22.61
506.152	22.78
506.5	22.97
506.849	23.16
507.197	23.31
507.546	23.46
507.894	23.63
508.242	23.74
508.59	23.86
508.939	23.97
509.287	24.07
509.635	24.19
509.983	24.27
510.331	24.34
510.679	24.42
511.027	24.5
511.375	24.59
511.723	24.67
512.07	24.75
512.418	24.82
512.766	24.89
513.114	24.96
513.461	25.05
513.809	25.13
514.156	25.18
514.504	25.28
514.851	25.37
515.199	25.4
515.546	25.47
515.893	25.55
516.241	25.59
516.588	25.65
516.935	25.69
517.282	25.77
517.63	25.82
517.977	25.86
518.324	25.89
518.671	25.95
519.018	26.01
519.365	26.02
519.711	26.06
520.058	26.1
520.405	26.11
520.752	26.14
521.099	26.18
521.445	26.24
521.792	26.25
522.138	26.27
522.485	26.34
522.832	26.39
523.178	26.45
523.524	26.5
523.871	26.54
524.217	26.55
524.563	26.56
524.91	26.6
525.256	26.64
525.602	26.7
525.948	26.7
526.294	26.7
526.64	26.72
526.986	26.75
527.332	26.76
527.678	26.79
528.024	26.8
528.37	26.8
528.716	26.81
529.061	26.84
529.407	26.84
529.753	26.84
530.098	26.86
530.444	26.84
530.789	26.84
531.135	26.85
531.48	26.88
531.826	26.9
532.171	26.92
532.516	26.93
532.862	26.93
533.207	26.95
533.552	26.97
533.897	26.99
534.242	26.98
534.587	27
534.932	26.98
535.277	27
535.622	27.02
535.967	27.02
536.312	27.03
536.657	27.05
537.001	27.09
537.346	27.09
537.691	27.12
538.035	27.1
538.38	27.09
538.724	27.08
539.069	27.07
539.413	27.07
539.758	27.07
540.102	27.07
540.446	27.06
540.791	27.06
541.135	27.06
541.479	27.08
541.823	27.08
542.167	27.1
542.512	27.1
542.856	27.07
543.2	27.07
543.543	27.05
543.887	27.04
544.231	27.03
544.575	27.04
544.919	27.02
545.262	27.04
545.606	27.05
545.95	27.06
546.293	27.07
546.637	27.06
546.98	27.07
547.324	27.05
547.667	27.06
548.011	27.03
548.354	27.01
548.697	27
549.04	26.98
549.384	26.96
549.727	26.92
550.07	26.93
550.413	26.91
550.756	26.91
551.099	26.93
551.442	26.91
551.785	26.85
552.128	26.83
552.47	26.81
552.813	26.78
553.156	26.73
553.499	26.7
553.841	26.68
554.184	26.63
554.526	26.61
554.869	26.55
555.211	26.53
555.554	26.47
555.896	26.42
556.238	26.38
556.581	26.34
556.923	26.32
557.265	26.27
557.607	26.25
557.949	26.18
558.291	26.1
558.633	26.06
558.975	26.03
559.317	26.01
559.659	25.99
560.001	25.95
560.343	25.89
560.685	25.86
561.026	25.82
561.368	25.78
561.71	25.71
562.051	25.69
562.393	25.65
562.734	25.59
563.076	25.52
563.417	25.44
563.759	25.33
564.1	25.26
564.441	25.2
564.782	25.12
565.124	25.09
565.465	25.06
565.806	24.99
566.147	24.95
566.488	24.88
566.829	24.79
567.17	24.72
567.511	24.69
567.851	24.61
568.192	24.55
568.533	24.51
568.874	24.47
569.214	24.42
569.555	24.36
569.895	24.28
570.236	24.22
570.576	24.17
570.917	24.14
571.257	24.08
571.598	24
571.938	23.97
572.278	23.91
572.618	23.87
572.959	23.78
573.299	23.72
573.639	23.68
573.979	23.62
574.319	23.57
574.659	23.52
574.999	23.45
575.339	23.39
575.678	23.3
576.018	23.23
576.358	23.17
576.698	23.07
577.037	23.02
577.377	22.97
577.716	22.91
578.056	22.87
578.395	22.8
578.735	22.72
579.074	22.61
579.413	22.52
579.753	22.39
580.092	22.35
580.431	22.27
580.77	22.19
581.109	22.14
581.448	22.09
581.787	22.04
582.126	21.97
582.465	21.91
582.804	21.83
583.143	21.75
583.482	21.7
583.82	21.63
584.159	21.55
584.498	21.48
584.836	21.43
585.175	21.36
585.514	21.26
585.852	21.24
586.19	21.2
586.529	21.11
586.867	21.09
587.205	21.07
587.544	21.02
587.882	20.99
588.22	20.95
588.558	20.88
588.896	20.8
589.234	20.78
589.572	20.7
589.91	20.63
590.248	20.57
590.586	20.51
590.924	20.46
591.262	20.4
591.599	20.36
591.937	20.31
592.275	20.24
592.612	20.23
592.95	20.18
593.287	20.1
593.625	20.04
593.962	19.98
594.299	19.89
594.637	19.84
594.974	19.8
595.311	19.74
595.648	19.69
595.985	19.67
596.322	19.57
596.659	19.57
596.996	19.54
597.333	19.49
597.67	19.43
598.007	19.39
598.344	19.34
598.681	19.26
599.017	19.18
599.354	19.12
599.691	19.04
600.027	18.93
600.364	18.91
600.7	18.84
601.037	18.75
601.373	18.7
601.71	18.63
602.046	18.57
602.382	18.51
602.718	18.48
603.054	18.4
603.391	18.39
603.727	18.31
604.063	18.29
604.399	18.24
604.735	18.19
605.071	18.16
605.406	18.13
605.742	18.1
606.078	18.08
606.414	18.04
606.749	18.01
607.085	17.98
607.421	17.91
607.756	17.86
608.092	17.82
608.427	17.73
608.762	17.63
609.098	17.54
609.433	17.47
609.768	17.36
610.104	17.3
610.439	17.23
610.774	17.21
611.109	17.12
611.444	17.08
611.779	17.02
612.114	16.91
612.449	16.86
612.784	16.8
613.118	16.68
613.453	16.57
613.788	16.48
614.123	16.39
614.457	16.27
614.792	16.18
615.126	16.07
615.461	16.03
615.795	15.99
616.13	15.89
616.464	15.86
616.798	15.83
617.132	15.77
617.467	15.7
617.801	15.61
618.135	15.59
618.469	15.56
618.803	15.48
619.137	15.47
619.471	15.4
619.805	15.35
620.139	15.33
620.472	15.29
620.806	15.23
621.14	15.18
621.473	15.13
621.807	15.09
622.141	15.05
622.474	15.01
622.808	14.92
623.141	14.89
623.474	14.86
623.808	14.85
624.141	14.86
624.474	14.87
624.807	14.83
625.141	14.79
625.474	14.74
625.807	14.72
626.14	14.71
626.473	14.69
626.806	14.66
627.138	14.61
627.471	14.54
627.804	14.51
628.137	14.48
628.469	14.43
628.802	14.36
629.135	14.3
629.467	14.22
629.8	14.18
630.132	14.14
630.465	14.09
630.797	14.04
631.129	13.97
631.461	13.91
631.794	13.9
632.126	13.83
632.458	13.76
632.79	13.7
633.122	13.66
633.454	13.62
633.786	13.56
634.118	13.48
634.45	13.46
634.781	13.4
635.113	13.32
635.445	13.36
635.777	13.37
636.108	13.37
636.44	13.35
636.771	13.32
637.103	13.25
637.434	13.19
637.765	13.11
638.097	13.08
638.428	12.95
638.759	12.88
639.09	12.87
639.422	12.87
639.753	12.79
640.084	12.76
640.415	12.72
640.746	12.68
641.077	12.66
641.407	12.63
641.738	12.62
642.069	12.64
642.4	12.54
642.73	12.47
643.061	12.43
643.392	12.42
643.722	12.46
644.053	12.42
644.383	12.37
644.713	12.3
645.044	12.23
645.374	12.24
