Data from pcis_p_m4_p1_Reflection_1.txt Node
Date: Wed Jul 12 17:56:36 ART 2017
User: rodoncho
Spectrometer: USB2E3644
Trigger mode: 4
Integration Time (sec): 6.000000E-2
Scans to average: 10
Electric dark correction enabled: true
Nonlinearity correction enabled: false
Boxcar width: 10
XAxis mode: Wavelengths
Number of Pixels in Spectrum: 2048
>>>>>Begin Spectral Data<<<<<
178.315	-37.62
178.696	-12.79
179.076	6.77
179.457	-3.42
179.838	1.25
180.218	-30.23
180.599	21.7
180.979	16.67
181.36	115.62
181.74	116.49
182.121	132.5
182.501	114.88
182.881	114.72
183.262	97.12
183.642	129.89
184.022	1081.25
184.402	-57.39
184.783	6.6
185.163	18.29
185.543	30.58
185.923	33.6
186.303	39.24
186.683	43.94
187.063	53.65
187.443	59.26
187.823	70.19
188.203	86.35
188.583	92.19
188.963	90.93
189.343	93.62
189.723	100.25
190.102	99.12
190.482	102.83
190.862	105.03
191.242	105.17
191.621	109.51
192.001	110.96
192.38	113.66
192.76	116.51
193.14	114.82
193.519	112.51
193.898	110.32
194.278	108.88
194.657	110.72
195.037	106.7
195.416	104.14
195.795	102.66
196.175	101.55
196.554	102.25
196.933	104.09
197.312	103.65
197.692	103.93
198.071	104.36
198.45	104.78
198.829	105.42
199.208	107.67
199.587	107.24
199.966	106.61
200.345	105.28
200.724	105.47
201.103	107.56
201.482	109.03
201.86	108.88
202.239	108.78
202.618	107.59
202.997	111.5
203.375	114.38
203.754	115.8
204.133	114.48
204.511	113.36
204.89	111.94
205.269	112.04
205.647	110.83
206.026	111.83
206.404	110.95
206.782	109.65
207.161	107.84
207.539	107.74
207.918	107.38
208.296	106.89
208.674	107.88
209.052	107.9
209.431	108.31
209.809	109.29
210.187	109.67
210.565	110.97
210.943	109.3
211.321	109.76
211.699	110.76
212.077	111.94
212.455	112.61
212.833	112.61
213.211	112.73
213.589	113.17
213.967	112.75
214.345	113.89
214.722	114.63
215.1	115.28
215.478	114.84
215.855	116.26
216.233	118.31
216.611	119.23
216.988	119.78
217.366	120.1
217.743	118.81
218.121	119.33
218.498	119.61
218.876	120.01
219.253	119.16
219.631	118.04
220.008	116.53
220.385	115.19
220.762	116.12
221.14	116.58
221.517	115.46
221.894	115.26
222.271	114.97
222.648	115.07
223.025	114.3
223.402	114.47
223.78	115.19
224.157	114.96
224.533	115.65
224.91	115.78
225.287	115.7
225.664	117.95
226.041	117.23
226.418	116.77
226.795	117.69
227.171	116.64
227.548	116
227.925	117.13
228.301	118.59
228.678	119.93
229.055	119.16
229.431	118.75
229.808	119.12
230.184	118.99
230.561	118.21
230.937	119
231.313	119.89
231.69	119.61
232.066	120.52
232.442	119.43
232.819	118.6
233.195	118.11
233.571	118.29
233.947	119.01
234.323	118.53
234.699	118.36
235.075	120.11
235.451	122.34
235.827	123.32
236.203	124.01
236.579	122.82
236.955	124.39
237.331	126.29
237.707	131.03
238.083	136.4
238.459	143.5
238.834	151.45
239.21	157.07
239.586	163.36
239.961	168.99
240.337	173.82
240.713	180.25
241.088	186.36
241.464	186.42
241.839	194.79
242.215	209.75
242.59	228.37
242.965	269.59
243.341	362.72
243.716	589.01
244.091	1272.21
244.467	11386.25
244.842	-1832.04
245.217	-856.08
245.592	-720.97
245.967	-623.48
246.343	-661.18
246.718	-756.45
247.093	-692.85
247.468	-641.42
247.843	-609.22
248.218	-477.92
248.593	-389.71
248.967	-324.41
249.342	-294.55
249.717	-288.59
250.092	-290.9
250.467	-303.82
250.841	-372.81
251.216	-613.63
251.591	-1484.49
251.965	6769.53
252.34	1418.08
252.714	940.28
253.089	658.36
253.463	624.93
253.838	587.99
254.212	646.26
254.587	843.88
254.961	1278.86
255.335	14053.23
255.71	-943.25
256.084	-371.77
256.458	-220.67
256.832	-159.99
257.206	-132.83
257.581	-121.92
257.955	-116.86
258.329	-110.83
258.703	-103.36
259.077	-95.3
259.451	-91.16
259.825	-85.14
260.199	-81.22
260.572	-78.53
260.946	-74.9
261.32	-72.6
261.694	-70.47
262.068	-68.94
262.441	-68.68
262.815	-69.14
263.189	-69.53
263.562	-73.02
263.936	-83.19
264.309	-98.68
264.683	-116.69
265.056	-127.65
265.43	-130.22
265.803	-127.71
266.176	-124.5
266.55	-123.97
266.923	-123.52
267.296	-120
267.67	-113.55
268.043	-104.7
268.416	-97.86
268.789	-89.48
269.162	-80.83
269.535	-74.27
269.908	-70.82
270.281	-68.25
270.654	-67.5
271.027	-68.72
271.4	-69.27
271.773	-69.9
272.146	-69.6
272.519	-66.25
272.891	-63.84
273.264	-63.18
273.637	-62.78
274.01	-63.37
274.382	-61.83
274.755	-59.94
275.127	-58.6
275.5	-59.18
275.872	-59.91
276.245	-60.05
276.617	-61.53
276.99	-64.8
277.362	-66.92
277.734	-67.34
278.107	-66.14
278.479	-63.26
278.851	-61.09
279.223	-59.07
279.596	-56.44
279.968	-54.41
280.34	-54.98
280.712	-53.83
281.084	-51.33
281.456	-46.64
281.828	-41.76
282.2	-39.04
282.572	-36.13
282.944	-33.86
283.315	-32.92
283.687	-32.15
284.059	-31.69
284.431	-30.39
284.802	-29.08
285.174	-28.08
285.546	-26.39
285.917	-26.1
286.289	-25.71
286.66	-24.73
287.032	-24.36
287.403	-23.78
287.775	-23.59
288.146	-22.94
288.518	-22.62
288.889	-21.99
289.26	-22.83
289.632	-23.92
290.003	-24.22
290.374	-25.33
290.745	-25.83
291.116	-25.08
291.487	-23.63
291.858	-22.03
292.229	-21.91
292.6	-20.98
292.971	-19.89
293.342	-18.49
293.713	-16.46
294.084	-14.86
294.455	-13.81
294.826	-12.6
295.196	-12.56
295.567	-11.79
295.938	-11.44
296.308	-11.02
296.679	-10.21
297.05	-9.07
297.42	-8.11
297.791	-7.15
298.161	-6.29
298.532	-5.56
298.902	-5.29
299.272	-4.76
299.643	-4.33
300.013	-3.67
300.383	-3.16
300.754	-2.86
301.124	-2.77
301.494	-2.24
301.864	-1.94
302.234	-1.4
302.604	-1.44
302.974	-0.77
303.344	-0.64
303.714	-0.2
304.084	0.31
304.454	0.5
304.824	0.79
305.194	1.31
305.563	1.57
305.933	2.37
306.303	3.11
306.673	4.07
307.042	4.47
307.412	5.25
307.781	6.18
308.151	6.79
308.521	7.29
308.89	7.42
309.259	7.4
309.629	7.57
309.998	7.73
310.368	8.03
310.737	8.06
311.106	8.18
311.475	8.52
311.845	8.5
312.214	8.8
312.583	9.02
312.952	9.27
313.321	9.66
313.69	9.67
314.059	9.54
314.428	9.24
314.797	9
315.166	8.47
315.535	8.05
315.904	8.05
316.272	8.29
316.641	8.56
317.01	8.89
317.379	9.19
317.747	9.23
318.116	9.52
318.484	9.97
318.853	10.63
319.221	10.92
319.59	11.33
319.958	11.67
320.327	11.9
320.695	11.92
321.063	12.02
321.432	12.45
321.8	13.17
322.168	13.85
322.536	14.39
322.905	15.09
323.273	15.51
323.641	15.52
324.009	15.6
324.377	15.78
324.745	15.81
325.113	15.88
325.481	16.23
325.849	16.45
326.216	16.86
326.584	17.1
326.952	17.33
327.32	17.67
327.687	17.83
328.055	18.06
328.423	18.36
328.79	18.58
329.158	18.5
329.525	18.56
329.893	18.69
330.26	18.9
330.628	18.92
330.995	19.16
331.362	19.64
331.73	19.93
332.097	20.11
332.464	20.38
332.831	20.64
333.199	20.74
333.566	21.01
333.933	21.08
334.3	21.04
334.667	21.09
335.034	21.23
335.401	21.42
335.768	21.57
336.135	21.76
336.502	21.98
336.868	22.32
337.235	22.58
337.602	22.8
337.969	23.18
338.335	23.55
338.702	23.8
339.069	23.94
339.435	23.99
339.802	24.14
340.168	24.19
340.535	24.33
340.901	24.57
341.267	24.81
341.634	24.88
342	25.14
342.366	25.39
342.733	25.65
343.099	25.89
343.465	26.06
343.831	26.42
344.197	26.65
344.563	26.74
344.929	26.96
345.295	27.15
345.661	27.31
346.027	27.28
346.393	27.29
346.759	27.42
347.125	27.51
347.491	27.7
347.856	27.91
348.222	28.1
348.588	28.2
348.953	28.16
349.319	28.38
349.684	28.49
350.05	28.55
350.415	28.63
350.781	28.62
351.146	28.78
351.512	28.65
351.877	28.7
352.242	28.78
352.608	28.79
352.973	28.91
353.338	28.86
353.703	29.03
354.068	29.31
354.433	29.46
354.798	29.59
355.164	29.74
355.528	29.84
355.893	30.03
356.258	30.13
356.623	30.34
356.988	30.5
357.353	30.7
357.718	30.93
358.082	31.02
358.447	31.19
358.812	31.25
359.176	31.35
359.541	31.54
359.905	31.73
360.27	31.84
360.634	31.93
360.999	32.08
361.363	32.18
361.728	32.22
362.092	32.3
362.456	32.37
362.821	32.4
363.185	32.5
363.549	32.55
363.913	32.73
364.277	32.75
364.641	32.83
365.005	32.84
365.369	32.86
365.733	32.94
366.097	33.16
366.461	33.27
366.825	33.46
367.189	33.5
367.553	33.62
367.916	33.77
368.28	33.84
368.644	33.93
369.007	34.02
369.371	34.09
369.734	34.13
370.098	34.31
370.461	34.57
370.825	34.65
371.188	34.78
371.552	34.81
371.915	34.96
372.278	35
372.642	35.2
373.005	35.35
373.368	35.49
373.731	35.54
374.094	35.68
374.457	35.81
374.82	35.87
375.183	35.93
375.546	35.94
375.909	35.97
376.272	35.99
376.635	36.14
376.998	36.22
377.361	36.38
377.723	36.53
378.086	36.56
378.449	36.76
378.811	36.84
379.174	36.95
379.537	37.04
379.899	37.17
380.262	37.22
380.624	37.25
380.987	37.3
381.349	37.3
381.711	37.31
382.074	37.35
382.436	37.44
382.798	37.54
383.16	37.63
383.522	37.77
383.884	37.91
384.247	37.98
384.609	38.08
384.971	38.07
385.333	38.07
385.695	38.08
386.056	38.14
386.418	38.14
386.78	38.25
387.142	38.25
387.504	38.33
387.865	38.38
388.227	38.46
388.589	38.53
388.95	38.62
389.312	38.7
389.673	38.7
390.035	38.78
390.396	38.78
390.758	38.84
391.119	38.8
391.48	38.9
391.842	38.93
392.203	38.97
392.564	39.06
392.925	39.1
393.286	39.16
393.648	39.17
394.009	39.25
394.37	39.25
394.731	39.33
395.092	39.35
395.452	39.34
395.813	39.41
396.174	39.43
396.535	39.43
396.896	39.52
397.257	39.59
397.617	39.58
397.978	39.67
398.338	39.69
398.699	39.81
399.06	39.82
399.42	39.84
399.781	39.9
400.141	39.9
400.501	39.92
400.862	39.98
401.222	40.02
401.582	40.03
401.943	40.06
402.303	40.12
402.663	40.18
403.023	40.29
403.383	40.3
403.743	40.35
404.103	40.42
404.463	40.43
404.823	40.48
405.183	40.54
405.543	40.55
405.903	40.54
406.262	40.52
406.622	40.54
406.982	40.57
407.342	40.53
407.701	40.53
408.061	40.54
408.42	40.5
408.78	40.52
409.139	40.58
409.499	40.56
409.858	40.49
410.217	40.48
410.577	40.48
410.936	40.51
411.295	40.5
411.655	40.47
412.014	40.42
412.373	40.4
412.732	40.39
413.091	40.38
413.45	40.37
413.809	40.4
414.168	40.37
414.527	40.34
414.886	40.28
415.245	40.22
415.603	40.21
415.962	40.16
416.321	40.12
416.679	40.01
417.038	39.96
417.397	39.93
417.755	39.83
418.114	39.79
418.472	39.69
418.831	39.62
419.189	39.59
419.547	39.56
419.906	39.47
420.264	39.41
420.622	39.32
420.981	39.27
421.339	39.18
421.697	39.1
422.055	39.02
422.413	38.97
422.771	38.92
423.129	38.85
423.487	38.82
423.845	38.74
424.203	38.7
424.56	38.65
424.918	38.58
425.276	38.53
425.634	38.45
425.991	38.42
426.349	38.38
426.707	38.31
427.064	38.25
427.422	38.22
427.779	38.13
428.137	38.05
428.494	37.93
428.851	37.86
429.209	37.72
429.566	37.64
429.923	37.52
430.28	37.43
430.637	37.37
430.995	37.25
431.352	37.16
431.709	37.08
432.066	37
432.423	36.92
432.78	36.84
433.137	36.74
433.493	36.6
433.85	36.52
434.207	36.42
434.564	36.27
434.92	36.13
435.277	36.01
435.634	35.89
435.99	35.75
436.347	35.63
436.703	35.49
437.06	35.33
437.416	35.21
437.773	35.06
438.129	34.92
438.485	34.8
438.841	34.66
439.198	34.54
439.554	34.44
439.91	34.33
440.266	34.23
440.622	34.11
440.978	34.01
441.334	33.86
441.69	33.74
442.046	33.6
442.402	33.43
442.758	33.24
443.113	33.08
443.469	32.93
443.825	32.77
444.181	32.64
444.536	32.52
444.892	32.38
445.247	32.26
445.603	32.15
445.958	32.05
446.314	31.95
446.669	31.85
447.025	31.73
447.38	31.62
447.735	31.5
448.09	31.39
448.446	31.27
448.801	31.12
449.156	30.95
449.511	30.8
449.866	30.67
450.221	30.54
450.576	30.39
450.931	30.21
451.286	30.04
451.641	29.89
451.995	29.69
452.35	29.56
452.705	29.41
453.06	29.25
453.414	29.12
453.769	29
454.123	28.83
454.478	28.68
454.832	28.54
455.187	28.35
455.541	28.15
455.896	27.89
456.25	27.7
456.604	27.51
456.958	27.34
457.313	27.18
457.667	27.02
458.021	26.86
458.375	26.75
458.729	26.65
459.083	26.52
459.437	26.42
459.791	26.31
460.145	26.21
460.499	26.12
460.852	25.99
461.206	25.87
461.56	25.77
461.914	25.63
462.267	25.51
462.621	25.38
462.974	25.26
463.328	25.15
463.681	24.97
464.035	24.81
464.388	24.65
464.742	24.51
465.095	24.4
465.448	24.29
465.801	24.14
466.155	24.02
466.508	23.91
466.861	23.79
467.214	23.66
467.567	23.55
467.92	23.42
468.273	23.31
468.626	23.19
468.979	23.09
469.332	22.97
469.684	22.84
470.037	22.74
470.39	22.61
470.743	22.48
471.095	22.41
471.448	22.29
471.8	22.18
472.153	22.07
472.505	21.95
472.858	21.82
473.21	21.68
473.562	21.51
473.915	21.37
474.267	21.24
474.619	21.13
474.971	21.01
475.324	20.88
475.676	20.77
476.028	20.63
476.38	20.49
476.732	20.39
477.084	20.27
477.436	20.14
477.787	20.01
478.139	19.88
478.491	19.73
478.843	19.59
479.195	19.41
479.546	19.22
479.898	18.98
480.249	18.75
480.601	18.58
480.952	18.42
481.304	18.3
481.655	18.21
482.007	18.1
482.358	18.01
482.709	17.93
483.061	17.84
483.412	17.76
483.763	17.68
484.114	17.58
484.465	17.49
484.816	17.4
485.167	17.33
485.518	17.26
485.869	17.21
486.22	17.16
486.571	17.11
486.922	17.05
487.272	16.96
487.623	16.85
487.974	16.72
488.324	16.59
488.675	16.48
489.025	16.4
489.376	16.33
489.726	16.26
490.077	16.2
490.427	16.15
490.778	16.1
491.128	16.03
491.478	15.98
491.828	15.93
492.179	15.89
492.529	15.83
492.879	15.77
493.229	15.73
493.579	15.65
493.929	15.59
494.279	15.52
494.629	15.48
494.979	15.41
495.328	15.32
495.678	15.28
496.028	15.21
496.378	15.14
496.727	15.09
497.077	15.03
497.426	14.97
497.776	14.89
498.125	14.84
498.475	14.78
498.824	14.72
499.174	14.67
499.523	14.59
499.872	14.53
500.221	14.46
500.571	14.39
500.92	14.32
501.269	14.26
501.618	14.21
501.967	14.14
502.316	14.07
502.665	14.02
503.014	13.96
503.363	13.91
503.711	13.83
504.06	13.75
504.409	13.67
504.758	13.59
505.106	13.52
505.455	13.45
505.803	13.39
506.152	13.32
506.5	13.25
506.849	13.2
507.197	13.14
507.546	13.08
507.894	13.01
508.242	12.97
508.59	12.91
508.939	12.85
509.287	12.81
509.635	12.78
509.983	12.72
510.331	12.68
510.679	12.63
511.027	12.59
511.375	12.57
511.723	12.53
512.07	12.51
512.418	12.48
512.766	12.42
513.114	12.4
513.461	12.36
513.809	12.32
514.156	12.28
514.504	12.21
514.851	12.17
515.199	12.11
515.546	12.04
515.893	11.98
516.241	11.93
516.588	11.88
516.935	11.84
517.282	11.8
517.63	11.77
517.977	11.73
518.324	11.7
518.671	11.67
519.018	11.64
519.365	11.59
519.711	11.54
520.058	11.5
520.405	11.45
520.752	11.41
521.099	11.38
521.445	11.31
521.792	11.27
522.138	11.21
522.485	11.17
522.832	11.13
523.178	11.08
523.524	11.06
523.871	11.01
524.217	10.94
524.563	10.87
524.91	10.79
525.256	10.69
525.602	10.61
525.948	10.53
526.294	10.47
526.64	10.43
526.986	10.42
527.332	10.4
527.678	10.36
528.024	10.33
528.37	10.31
528.716	10.29
529.061	10.25
529.407	10.22
529.753	10.18
530.098	10.13
530.444	10.1
530.789	10.07
531.135	10.05
531.48	10.04
531.826	10.03
532.171	10.02
532.516	9.99
532.862	9.97
533.207	9.95
533.552	9.93
533.897	9.92
534.242	9.89
534.587	9.86
534.932	9.86
535.277	9.84
535.622	9.82
535.967	9.81
536.312	9.81
536.657	9.79
537.001	9.77
537.346	9.75
537.691	9.69
538.035	9.63
538.38	9.58
538.724	9.51
539.069	9.47
539.413	9.43
539.758	9.4
540.102	9.38
540.446	9.34
540.791	9.32
541.135	9.31
541.479	9.29
541.823	9.28
542.167	9.25
542.512	9.24
542.856	9.21
543.2	9.18
543.543	9.15
543.887	9.13
544.231	9.12
544.575	9.1
544.919	9.09
545.262	9.09
545.606	9.08
545.95	9.09
546.293	9.09
546.637	9.07
546.98	9.06
547.324	9.03
547.667	9.05
548.011	9.03
548.354	8.98
548.697	8.95
549.04	8.92
549.384	8.9
549.727	8.85
550.07	8.83
550.413	8.8
550.756	8.79
551.099	8.78
551.442	8.74
551.785	8.73
552.128	8.71
552.47	8.68
552.813	8.63
553.156	8.6
553.499	8.55
553.841	8.55
554.184	8.52
554.526	8.48
554.869	8.44
555.211	8.4
555.554	8.38
555.896	8.33
556.238	8.29
556.581	8.26
556.923	8.22
557.265	8.21
557.607	8.17
557.949	8.13
558.291	8.1
558.633	8.09
558.975	8.04
559.317	8
559.659	7.95
560.001	7.92
560.343	7.9
560.685	7.88
561.026	7.82
561.368	7.78
561.71	7.72
562.051	7.68
562.393	7.68
562.734	7.63
563.076	7.58
563.417	7.56
563.759	7.52
564.1	7.48
564.441	7.43
564.782	7.4
565.124	7.37
565.465	7.32
565.806	7.27
566.147	7.23
566.488	7.19
566.829	7.16
567.17	7.1
567.511	7.07
567.851	7.04
568.192	7.01
568.533	6.98
568.874	6.99
569.214	6.96
569.555	6.89
569.895	6.88
570.236	6.89
570.576	6.86
570.917	6.84
571.257	6.82
571.598	6.78
571.938	6.75
572.278	6.74
572.618	6.73
572.959	6.71
573.299	6.7
573.639	6.66
573.979	6.65
574.319	6.63
574.659	6.59
574.999	6.54
575.339	6.51
575.678	6.47
576.018	6.4
576.358	6.37
576.698	6.34
577.037	6.28
577.377	6.19
577.716	6.14
578.056	6.09
578.395	6.05
578.735	6
579.074	5.95
579.413	5.85
579.753	5.79
580.092	5.76
580.431	5.74
580.77	5.72
581.109	5.69
581.448	5.65
581.787	5.63
582.126	5.6
582.465	5.57
582.804	5.54
583.143	5.53
583.482	5.48
583.82	5.44
584.159	5.41
584.498	5.39
584.836	5.37
585.175	5.37
585.514	5.34
585.852	5.35
586.19	5.32
586.529	5.32
586.867	5.31
587.205	5.29
587.544	5.26
587.882	5.24
588.22	5.2
588.558	5.19
588.896	5.17
589.234	5.15
589.572	5.13
589.91	5.09
590.248	5.07
590.586	5.08
590.924	5.08
591.262	5.07
591.599	5.06
591.937	5.05
592.275	5.01
592.612	5
592.95	4.98
593.287	5
593.625	5.03
593.962	5.01
594.299	5.02
594.637	5
594.974	5.01
595.311	4.99
595.648	5
595.985	4.97
596.322	4.95
596.659	4.94
596.996	4.93
597.333	4.9
597.67	4.86
598.007	4.84
598.344	4.82
598.681	4.79
599.017	4.76
599.354	4.73
599.691	4.71
600.027	4.69
600.364	4.67
600.7	4.61
601.037	4.59
601.373	4.57
601.71	4.59
602.046	4.58
602.382	4.61
602.718	4.58
603.054	4.57
603.391	4.56
603.727	4.56
604.063	4.56
604.399	4.54
604.735	4.55
605.071	4.56
605.406	4.56
605.742	4.56
606.078	4.57
606.414	4.6
606.749	4.61
607.085	4.6
607.421	4.57
607.756	4.58
608.092	4.57
608.427	4.51
608.762	4.45
609.098	4.4
609.433	4.34
609.768	4.32
610.104	4.31
610.439	4.29
610.774	4.26
611.109	4.23
611.444	4.22
611.779	4.18
612.114	4.13
612.449	4.09
612.784	4.05
613.118	4
613.453	3.93
613.788	3.83
614.123	3.76
614.457	3.72
614.792	3.67
615.126	3.59
615.461	3.56
615.795	3.51
616.13	3.5
616.464	3.49
616.798	3.46
617.132	3.47
617.467	3.48
617.801	3.47
618.135	3.48
618.469	3.45
618.803	3.41
619.137	3.38
619.471	3.36
619.805	3.35
620.139	3.33
620.472	3.31
620.806	3.31
621.14	3.31
621.473	3.3
621.807	3.25
622.141	3.23
622.474	3.22
622.808	3.24
623.141	3.25
623.474	3.26
623.808	3.28
624.141	3.26
624.474	3.21
624.807	3.2
625.141	3.17
625.474	3.17
625.807	3.23
626.14	3.26
626.473	3.28
626.806	3.29
627.138	3.29
627.471	3.28
627.804	3.28
628.137	3.27
628.469	3.29
628.802	3.29
629.135	3.27
629.467	3.25
629.8	3.23
630.132	3.22
630.465	3.21
630.797	3.16
631.129	3.13
631.461	3.15
631.794	3.14
632.126	3.13
632.458	3.13
632.79	3.08
633.122	3.07
633.454	3.06
633.786	3.04
634.118	3.03
634.45	3.05
634.781	3.03
635.113	3.01
635.445	2.97
635.777	2.96
636.108	2.98
636.44	2.97
636.771	2.96
637.103	2.9
637.434	2.83
637.765	2.83
638.097	2.8
638.428	2.75
638.759	2.7
639.09	2.64
639.422	2.57
639.753	2.52
640.084	2.5
640.415	2.48
640.746	2.43
641.077	2.38
641.407	2.32
641.738	2.32
642.069	2.31
642.4	2.31
642.73	2.3
643.061	2.27
643.392	2.28
643.722	2.31
644.053	2.28
644.383	2.29
644.713	2.25
645.044	2.23
645.374	2.22
645.704	2.22
646.034	2.28
646.365	2.33
646.695	2.32
647.025	2.3
647.355	2.29
647.685	2.29
648.015	2.33
648.344	2.37
648.674	2.37
649.004	2.4
649.334	2.37
649.663	2.4
649.993	2.44
650.323	2.42
650.652	2.39
650.982	2.43
651.311	2.38
651.64	2.34
651.97	2.31
652.299	2.35
652.628	2.36
652.958	2.32
