Data from pcis_c_h1_p2_Reflection_3.txt Node
Date: Wed Jul 12 17:24:57 ART 2017
User: rodoncho
Spectrometer: USB2E3644
Trigger mode: 4
Integration Time (sec): 6.000000E-2
Scans to average: 10
Electric dark correction enabled: true
Nonlinearity correction enabled: false
Boxcar width: 10
XAxis mode: Wavelengths
Number of Pixels in Spectrum: 2048
>>>>>Begin Spectral Data<<<<<
178.315	621.21
178.696	339.39
179.076	109.91
179.457	64.78
179.838	43.21
180.218	-20.13
180.599	-145.83
180.979	-100
181.36	-70.83
181.74	-35.12
182.121	-11.67
182.501	128.46
182.881	188.03
183.262	1677.78
183.642	-138.6
184.022	-13.13
184.402	11.3
184.783	37.67
185.163	54.02
185.543	59.74
185.923	67.93
186.303	82.74
186.683	83.76
187.063	84.93
187.443	81.15
187.823	83.94
188.203	86.72
188.583	95.28
188.963	99.12
189.343	104.76
189.723	111.37
190.102	109.29
190.482	108.45
190.862	108.83
191.242	115.15
191.621	117.76
192.001	115.46
192.38	117.67
192.76	122.02
193.14	119.71
193.519	125.5
193.898	125.99
194.278	128.74
194.657	126.86
195.037	125.23
195.416	126.07
195.795	124.07
196.175	123.58
196.554	120.36
196.933	119.56
197.312	119.68
197.692	119.79
198.071	120.89
198.45	119.21
198.829	118.97
199.208	116.8
199.587	114.83
199.966	116.27
200.345	115.52
200.724	113.57
201.103	112.72
201.482	111.09
201.86	109.63
202.239	107.73
202.618	106.83
202.997	105.34
203.375	103
203.754	103.25
204.133	101.89
204.511	101.97
204.89	102.69
205.269	101.97
205.647	101.95
206.026	103.03
206.404	104.05
206.782	104.76
207.161	104.94
207.539	104.95
207.918	105.09
208.296	103.53
208.674	104.07
209.052	104.36
209.431	103.36
209.809	102.6
210.187	102.91
210.565	103.56
210.943	103.41
211.321	104.82
211.699	104.43
212.077	104.33
212.455	105.01
212.833	106.96
213.211	108.47
213.589	108.11
213.967	106.32
214.345	107.09
214.722	107.64
215.1	107.52
215.478	108.39
215.855	108.06
216.233	109.98
216.611	109.95
216.988	109.32
217.366	109.85
217.743	109.83
218.121	109.85
218.498	109.27
218.876	109.83
219.253	109.37
219.631	109.51
220.008	109.93
220.385	109.71
220.762	107.96
221.14	106.08
221.517	105.61
221.894	106
222.271	105.22
222.648	104.77
223.025	106.83
223.402	105.7
223.78	104.62
224.157	104.76
224.533	105.7
224.91	106.22
225.287	107.57
225.664	109.02
226.041	107.82
226.418	108.37
226.795	108.47
227.171	109.49
227.548	110.69
227.925	111.36
228.301	110.52
228.678	110.08
229.055	111.68
229.431	112.96
229.808	112.92
230.184	114.16
230.561	114.67
230.937	113.75
231.313	113.84
231.69	115.68
232.066	116.92
232.442	117.06
232.819	117.72
233.195	116.97
233.571	116.97
233.947	117.22
234.323	116.23
234.699	115.68
235.075	114.21
235.451	112.9
235.827	113.53
236.203	115.74
236.579	117.44
236.955	117.69
237.331	118.65
237.707	121.05
238.083	122.81
238.459	124.5
238.834	128.42
239.21	133.33
239.586	136.62
239.961	138.74
240.337	141.26
240.713	143.4
241.088	146.27
241.464	146.95
241.839	154.18
242.215	163.54
242.59	174.94
242.965	203.3
243.341	253.66
243.716	329.87
244.091	459.03
244.467	625.07
244.842	878.91
245.217	1426.54
245.592	2530.6
245.967	4931.18
246.343	17140.74
246.718	9772.92
247.093	17162.96
247.468	-38566.67
247.843	-7080.3
248.218	-2366.16
248.593	-1318.21
248.967	-857.19
249.342	-698.08
249.717	-715.69
250.092	-741.9
250.467	-921.65
250.841	-1809.85
251.216	5720.24
251.591	1085.59
251.965	655.91
252.34	550.73
252.714	487.1
253.089	458.36
253.463	433.25
253.838	449.78
254.212	463.07
254.587	512.13
254.961	644.53
255.335	983.53
255.71	27877.78
256.084	-808.62
256.458	-381.78
256.832	-253.89
257.206	-210.77
257.581	-189.62
257.955	-178.1
258.329	-168.42
258.703	-158.08
259.077	-149.78
259.451	-142.05
259.825	-136.49
260.199	-133.31
260.572	-128.49
260.946	-123.14
261.32	-119.44
261.694	-115.59
262.068	-114.5
262.441	-113.51
262.815	-113.66
263.189	-113.91
263.562	-122.36
263.936	-138.75
264.309	-167.46
264.683	-208.96
265.056	-240.34
265.43	-253.23
265.803	-244.65
266.176	-228.93
266.55	-234.11
266.923	-226.49
267.296	-218.98
267.67	-203.09
268.043	-181.63
268.416	-163.27
268.789	-147.86
269.162	-132.15
269.535	-122.88
269.908	-115.66
270.281	-111.13
270.654	-111.9
271.027	-115.37
271.4	-117.38
271.773	-119.69
272.146	-118.96
272.519	-114.64
272.891	-108.27
273.264	-104.97
273.637	-104.26
274.01	-104.46
274.382	-101.55
274.755	-99.85
275.127	-99.33
275.5	-99.66
275.872	-100.24
276.245	-100.17
276.617	-102.84
276.99	-107.25
277.362	-111.54
277.734	-114.63
278.107	-112.59
278.479	-104.62
278.851	-99.65
279.223	-95.3
279.596	-92.21
279.968	-89.22
280.34	-88.57
280.712	-86.31
281.084	-82.68
281.456	-76.18
281.828	-71.43
282.2	-66.35
282.572	-61.69
282.944	-58.06
283.315	-56.63
283.687	-55.87
284.059	-56.05
284.431	-55.11
284.802	-54.22
285.174	-52.6
285.546	-50.48
285.917	-49.84
286.289	-49.42
286.66	-48.55
287.032	-48.07
287.403	-47.74
287.775	-47.7
288.146	-47.23
288.518	-47
288.889	-47
289.26	-48.58
289.632	-49.72
290.003	-51.61
290.374	-53.66
290.745	-54.84
291.116	-53.97
291.487	-52.63
291.858	-50.71
292.229	-49.47
292.6	-47.44
292.971	-45.11
293.342	-42.57
293.713	-40.5
294.084	-38.8
294.455	-37.52
294.826	-36.61
295.196	-36.1
295.567	-35.14
295.938	-34.48
296.308	-34.57
296.679	-33.54
297.05	-32.64
297.42	-31.67
297.791	-30.21
298.161	-29.01
298.532	-28.48
298.902	-28.5
299.272	-28.31
299.643	-27.78
300.013	-26.89
300.383	-26.45
300.754	-26
301.124	-26.23
301.494	-26.21
301.864	-26.08
302.234	-26.05
302.604	-25.77
302.974	-25.15
303.344	-24.98
303.714	-25.11
304.084	-23.75
304.454	-23.27
304.824	-22.58
305.194	-21.73
305.563	-20.97
305.933	-19.86
306.303	-18.17
306.673	-16.89
307.042	-15.97
307.412	-14.93
307.781	-13.99
308.151	-13.01
308.521	-12.56
308.89	-12.1
309.259	-11.58
309.629	-11.22
309.998	-10.97
310.368	-10.69
310.737	-10.41
311.106	-10.2
311.475	-9.44
311.845	-9.27
312.214	-8.83
312.583	-8.44
312.952	-8.23
313.321	-8.12
313.69	-8
314.059	-8.64
314.428	-8.83
314.797	-8.98
315.166	-9.74
315.535	-10.32
315.904	-10.77
316.272	-10.91
316.641	-11.19
317.01	-11.1
317.379	-11.35
317.747	-11.25
318.116	-10.82
318.484	-10.39
318.853	-9.66
319.221	-9.39
319.59	-9.5
319.958	-9.23
320.327	-8.88
320.695	-8.37
321.063	-7.72
321.432	-7.35
321.8	-6.63
322.168	-5.73
322.536	-4.64
322.905	-3.6
323.273	-3.17
323.641	-2.79
324.009	-2.74
324.377	-2.28
324.745	-1.8
325.113	-1.27
325.481	-0.56
325.849	-0.29
326.216	0.15
326.584	0.37
326.952	0.58
327.32	1.25
327.687	1.46
328.055	1.76
328.423	1.68
328.79	1.58
329.158	1.61
329.525	1.94
329.893	2.08
330.26	2.01
330.628	1.85
330.995	2.2
331.362	2.63
331.73	3.27
332.097	3.59
332.464	3.75
332.831	3.99
333.199	4.21
333.566	4.5
333.933	4.36
334.3	4.27
334.667	4.61
335.034	4.63
335.401	4.67
335.768	4.72
336.135	5.05
336.502	5.28
336.868	5.42
337.235	5.58
337.602	5.89
337.969	6.16
338.335	6.59
338.702	6.83
339.069	6.88
339.435	6.95
339.802	6.99
340.168	7.23
340.535	7.49
340.901	7.66
341.267	7.83
341.634	8.18
342	8.53
342.366	8.72
342.733	8.77
343.099	8.95
343.465	9.14
343.831	9.37
344.197	9.49
344.563	9.72
344.929	9.8
345.295	9.81
345.661	9.94
346.027	10.08
346.393	10.2
346.759	10.28
347.125	10.32
347.491	10.49
347.856	10.42
348.222	10.4
348.588	10.41
348.953	10.4
349.319	10.55
349.684	10.49
350.05	10.5
350.415	10.72
350.781	11
351.146	11.11
351.512	11.12
351.877	11.36
352.242	11.47
352.608	11.55
352.973	11.55
353.338	11.53
353.703	11.58
354.068	11.7
354.433	11.78
354.798	11.91
355.164	12.07
355.528	12.19
355.893	12.23
356.258	12.28
356.623	12.35
356.988	12.39
357.353	12.66
357.718	12.78
358.082	12.88
358.447	12.77
358.812	12.78
359.176	12.9
359.541	12.9
359.905	12.97
360.27	13.08
360.634	13.27
360.999	13.44
361.363	13.46
361.728	13.46
362.092	13.55
362.456	13.6
362.821	13.55
363.185	13.66
363.549	13.8
363.913	13.91
364.277	13.99
364.641	14.07
365.005	14.13
365.369	14.13
365.733	14.17
366.097	14.32
366.461	14.43
366.825	14.5
367.189	14.57
367.553	14.69
367.916	14.7
368.28	14.74
368.644	14.79
369.007	14.96
369.371	15.07
369.734	15.14
370.098	15.19
370.461	15.33
370.825	15.37
371.188	15.42
371.552	15.5
371.915	15.57
372.278	15.6
372.642	15.68
373.005	15.81
373.368	15.87
373.731	15.98
374.094	16.03
374.457	16.02
374.82	16.1
375.183	16.08
375.546	16.13
375.909	16.14
376.272	16.13
376.635	16.11
376.998	16.12
377.361	16.13
377.723	16.19
378.086	16.24
378.449	16.28
378.811	16.34
379.174	16.37
379.537	16.46
379.899	16.53
380.262	16.58
380.624	16.61
380.987	16.63
381.349	16.62
381.711	16.66
382.074	16.71
382.436	16.75
382.798	16.82
383.16	16.86
383.522	16.9
383.884	17.02
384.247	17.07
384.609	17.13
384.971	17.22
385.333	17.26
385.695	17.28
386.056	17.3
386.418	17.27
386.78	17.3
387.142	17.26
387.504	17.28
387.865	17.24
388.227	17.25
388.589	17.29
388.95	17.28
389.312	17.26
389.673	17.29
390.035	17.25
390.396	17.18
390.758	17.14
391.119	17.15
391.48	17.05
391.842	17.03
392.203	16.93
392.564	16.87
392.925	16.82
393.286	16.78
393.648	16.73
394.009	16.71
394.37	16.66
394.731	16.61
395.092	16.47
395.452	16.41
395.813	16.35
396.174	16.3
396.535	16.24
396.896	16.2
397.257	16.14
397.617	16.15
397.978	16.15
398.338	16.14
398.699	16.1
399.06	16.1
399.42	16.03
399.781	16.03
400.141	15.94
400.501	15.91
400.862	15.89
401.222	15.86
401.582	15.84
401.943	15.78
402.303	15.77
402.663	15.82
403.023	15.78
403.383	15.8
403.743	15.76
404.103	15.74
404.463	15.76
404.823	15.76
405.183	15.73
405.543	15.69
405.903	15.69
406.262	15.7
406.622	15.67
406.982	15.71
407.342	15.69
407.701	15.75
408.061	15.76
408.42	15.73
408.78	15.75
409.139	15.73
409.499	15.73
409.858	15.77
410.217	15.73
410.577	15.74
410.936	15.69
411.295	15.66
411.655	15.65
412.014	15.57
412.373	15.51
412.732	15.43
413.091	15.38
413.45	15.3
413.809	15.19
414.168	15.09
414.527	14.95
414.886	14.83
415.245	14.69
415.603	14.56
415.962	14.42
416.321	14.29
416.679	14.15
417.038	14
417.397	13.82
417.755	13.67
418.114	13.54
418.472	13.43
418.831	13.33
419.189	13.2
419.547	13.08
419.906	12.96
420.264	12.83
420.622	12.7
420.981	12.58
421.339	12.48
421.697	12.4
422.055	12.31
422.413	12.25
422.771	12.18
423.129	12.12
423.487	12.08
423.845	12.04
424.203	12
424.56	11.99
424.918	11.96
425.276	11.94
425.634	11.92
425.991	11.9
426.349	11.88
426.707	11.88
427.064	11.9
427.422	11.93
427.779	11.97
428.137	12.04
428.494	12.11
428.851	12.17
429.209	12.2
429.566	12.26
429.923	12.28
430.28	12.34
430.637	12.35
430.995	12.41
431.352	12.43
431.709	12.49
432.066	12.53
432.423	12.6
432.78	12.65
433.137	12.73
433.493	12.8
433.85	12.88
434.207	12.92
434.564	12.97
434.92	13
435.277	13.04
435.634	13.08
435.99	13.09
436.347	13.14
436.703	13.2
437.06	13.25
437.416	13.28
437.773	13.32
438.129	13.35
438.485	13.37
438.841	13.39
439.198	13.4
439.554	13.4
439.91	13.37
440.266	13.35
440.622	13.29
440.978	13.24
441.334	13.16
441.69	13.08
442.046	12.96
442.402	12.84
442.758	12.68
443.113	12.57
443.469	12.46
443.825	12.34
444.181	12.23
444.536	12.12
444.892	12.01
445.247	11.89
445.603	11.79
445.958	11.69
446.314	11.59
446.669	11.47
447.025	11.36
447.38	11.25
447.735	11.16
448.09	11.06
448.446	10.96
448.801	10.87
449.156	10.78
449.511	10.69
449.866	10.64
450.221	10.6
450.576	10.54
450.931	10.47
451.286	10.41
451.641	10.36
451.995	10.31
452.35	10.29
452.705	10.26
453.06	10.24
453.414	10.25
453.769	10.27
454.123	10.29
454.478	10.3
454.832	10.33
455.187	10.36
455.541	10.4
455.896	10.46
456.25	10.51
456.604	10.55
456.958	10.63
457.313	10.7
457.667	10.8
458.021	10.87
458.375	10.98
458.729	11.1
459.083	11.19
459.437	11.3
459.791	11.42
460.145	11.54
460.499	11.66
460.852	11.77
461.206	11.89
461.56	12.02
461.914	12.17
462.267	12.32
462.621	12.49
462.974	12.71
463.328	12.93
463.681	13.19
464.035	13.47
464.388	13.72
464.742	13.96
465.095	14.15
465.448	14.37
465.801	14.53
466.155	14.68
466.508	14.86
466.861	15.02
467.214	15.17
467.567	15.3
467.92	15.42
468.273	15.55
468.626	15.65
468.979	15.74
469.332	15.82
469.684	15.91
470.037	16.01
470.39	16.05
470.743	16.12
471.095	16.15
471.448	16.19
471.8	16.2
472.153	16.19
472.505	16.18
472.858	16.1
473.21	16.05
473.562	15.95
473.915	15.82
474.267	15.69
474.619	15.55
474.971	15.4
475.324	15.22
475.676	15.04
476.028	14.85
476.38	14.64
476.732	14.44
477.084	14.19
477.436	13.94
477.787	13.69
478.139	13.46
478.491	13.19
478.843	12.92
479.195	12.63
479.546	12.27
479.898	11.82
480.249	11.45
480.601	11.12
480.952	10.88
481.304	10.71
481.655	10.58
482.007	10.45
482.358	10.36
482.709	10.28
483.061	10.22
483.412	10.16
483.763	10.11
484.114	10.06
484.465	10.03
484.816	10.01
485.167	10
485.518	9.99
485.869	10
486.22	10.02
486.571	10.05
486.922	10.1
487.272	10.18
487.623	10.28
487.974	10.41
488.324	10.57
488.675	10.71
489.025	10.85
489.376	10.99
489.726	11.12
490.077	11.25
490.427	11.38
490.778	11.53
491.128	11.72
491.478	11.94
491.828	12.18
492.179	12.43
492.529	12.69
492.879	12.94
493.229	13.18
493.579	13.42
493.929	13.64
494.279	13.85
494.629	14.12
494.979	14.44
495.328	14.82
495.678	15.22
496.028	15.61
496.378	15.94
496.727	16.27
497.077	16.59
497.426	16.89
497.776	17.16
498.125	17.43
498.475	17.68
498.824	17.9
499.174	18.13
499.523	18.37
499.872	18.6
500.221	18.83
500.571	19.09
500.92	19.3
501.269	19.55
501.618	19.78
501.967	20
502.316	20.19
502.665	20.36
503.014	20.52
503.363	20.67
503.711	20.83
504.06	20.92
504.409	20.99
504.758	21.06
505.106	21.13
505.455	21.2
505.803	21.25
506.152	21.3
506.5	21.35
506.849	21.37
507.197	21.4
507.546	21.42
507.894	21.43
508.242	21.45
508.59	21.43
508.939	21.43
509.287	21.4
509.635	21.38
509.983	21.38
510.331	21.36
510.679	21.35
511.027	21.32
511.375	21.31
511.723	21.3
512.07	21.29
512.418	21.29
512.766	21.28
513.114	21.24
513.461	21.2
513.809	21.14
514.156	21.09
514.504	21.02
514.851	20.94
515.199	20.85
515.546	20.78
515.893	20.7
516.241	20.63
516.588	20.57
516.935	20.51
517.282	20.46
517.63	20.39
517.977	20.32
518.324	20.25
518.671	20.2
519.018	20.15
519.365	20.11
519.711	20.04
520.058	19.93
520.405	19.87
520.752	19.81
521.099	19.73
521.445	19.64
521.792	19.54
522.138	19.44
522.485	19.37
522.832	19.29
523.178	19.22
523.524	19.13
523.871	19.03
524.217	18.93
524.563	18.78
524.91	18.63
525.256	18.49
525.602	18.37
525.948	18.28
526.294	18.19
526.64	18.1
526.986	18.05
527.332	18.01
527.678	17.97
528.024	17.93
528.37	17.9
528.716	17.86
529.061	17.82
529.407	17.77
529.753	17.7
530.098	17.62
530.444	17.56
530.789	17.51
531.135	17.47
531.48	17.43
531.826	17.4
532.171	17.36
532.516	17.3
532.862	17.24
533.207	17.18
533.552	17.12
533.897	17.06
534.242	17
534.587	16.94
534.932	16.89
535.277	16.83
535.622	16.77
535.967	16.75
536.312	16.69
536.657	16.64
537.001	16.57
537.346	16.5
537.691	16.38
538.035	16.27
538.38	16.17
538.724	16.05
539.069	15.96
539.413	15.89
539.758	15.83
540.102	15.75
540.446	15.68
540.791	15.63
541.135	15.6
541.479	15.56
541.823	15.52
542.167	15.48
542.512	15.44
542.856	15.38
543.2	15.31
543.543	15.25
543.887	15.2
544.231	15.16
544.575	15.12
544.919	15.07
545.262	15.04
545.606	14.98
545.95	14.96
546.293	14.93
546.637	14.87
546.98	14.84
547.324	14.8
547.667	14.78
548.011	14.74
548.354	14.68
548.697	14.62
549.04	14.59
549.384	14.53
549.727	14.46
550.07	14.41
550.413	14.36
550.756	14.32
551.099	14.28
551.442	14.22
551.785	14.19
552.128	14.15
552.47	14.08
552.813	14.04
553.156	13.97
553.499	13.93
553.841	13.9
554.184	13.86
554.526	13.83
554.869	13.77
555.211	13.71
555.554	13.64
555.896	13.58
556.238	13.51
556.581	13.44
556.923	13.42
557.265	13.38
557.607	13.31
557.949	13.27
558.291	13.22
558.633	13.17
558.975	13.09
559.317	13.05
559.659	13.01
560.001	12.93
560.343	12.88
560.685	12.83
561.026	12.75
561.368	12.64
561.71	12.54
562.051	12.45
562.393	12.4
562.734	12.34
563.076	12.26
563.417	12.2
563.759	12.16
564.1	12.08
564.441	12.03
564.782	11.97
565.124	11.9
565.465	11.83
565.806	11.77
566.147	11.7
566.488	11.66
566.829	11.58
567.17	11.53
567.511	11.48
567.851	11.41
568.192	11.4
568.533	11.37
568.874	11.33
569.214	11.29
569.555	11.19
569.895	11.13
570.236	11.1
570.576	11.04
570.917	10.99
571.257	10.95
571.598	10.9
571.938	10.87
572.278	10.83
572.618	10.81
572.959	10.73
573.299	10.69
573.639	10.6
573.979	10.58
574.319	10.56
574.659	10.5
574.999	10.44
575.339	10.37
575.678	10.3
576.018	10.25
576.358	10.18
576.698	10.16
577.037	10.09
577.377	10.04
577.716	9.97
578.056	9.93
578.395	9.86
578.735	9.78
579.074	9.72
579.413	9.64
579.753	9.56
580.092	9.52
580.431	9.5
580.77	9.47
581.109	9.44
581.448	9.38
581.787	9.34
582.126	9.28
582.465	9.23
582.804	9.21
583.143	9.17
583.482	9.14
583.82	9.09
584.159	9.08
584.498	9
584.836	8.98
585.175	8.92
585.514	8.88
585.852	8.87
586.19	8.85
586.529	8.83
586.867	8.83
587.205	8.82
587.544	8.8
587.882	8.76
588.22	8.71
588.558	8.67
588.896	8.66
589.234	8.68
589.572	8.63
589.91	8.59
590.248	8.54
590.586	8.53
590.924	8.5
591.262	8.48
591.599	8.5
591.937	8.46
592.275	8.44
592.612	8.42
592.95	8.42
593.287	8.41
593.625	8.42
593.962	8.44
594.299	8.46
594.637	8.45
594.974	8.44
595.311	8.44
595.648	8.45
595.985	8.42
596.322	8.39
596.659	8.4
596.996	8.38
597.333	8.37
597.67	8.34
598.007	8.3
598.344	8.26
598.681	8.23
599.017	8.22
599.354	8.18
599.691	8.19
600.027	8.17
600.364	8.14
600.7	8.11
601.037	8.06
601.373	8.01
601.71	8.03
602.046	8.02
602.382	7.98
602.718	7.97
603.054	7.95
603.391	7.92
603.727	7.88
604.063	7.86
604.399	7.85
604.735	7.84
605.071	7.87
605.406	7.87
605.742	7.86
606.078	7.88
606.414	7.91
606.749	7.91
607.085	7.87
607.421	7.84
607.756	7.79
608.092	7.75
608.427	7.7
608.762	7.61
609.098	7.55
609.433	7.53
609.768	7.47
610.104	7.46
610.439	7.45
610.774	7.43
611.109	7.41
611.444	7.37
611.779	7.35
612.114	7.3
612.449	7.23
612.784	7.19
613.118	7.11
613.453	7.03
613.788	6.91
614.123	6.84
614.457	6.81
614.792	6.79
615.126	6.76
615.461	6.72
615.795	6.68
616.13	6.66
616.464	6.64
616.798	6.61
617.132	6.59
617.467	6.59
617.801	6.56
618.135	6.53
618.469	6.52
618.803	6.47
619.137	6.48
619.471	6.48
619.805	6.43
620.139	6.37
620.472	6.35
620.806	6.34
621.14	6.34
621.473	6.28
621.807	6.26
622.141	6.22
622.474	6.19
622.808	6.18
623.141	6.19
623.474	6.19
623.808	6.22
624.141	6.23
624.474	6.23
624.807	6.26
625.141	6.26
625.474	6.24
625.807	6.25
626.14	6.24
626.473	6.24
626.806	6.3
627.138	6.35
627.471	6.33
627.804	6.33
628.137	6.32
628.469	6.32
628.802	6.25
629.135	6.23
629.467	6.2
629.8	6.17
630.132	6.13
630.465	6.1
630.797	6.07
631.129	6.04
631.461	6
631.794	5.94
632.126	5.87
632.458	5.85
632.79	5.84
633.122	5.8
633.454	5.79
633.786	5.71
634.118	5.66
634.45	5.62
634.781	5.58
635.113	5.55
635.445	5.52
635.777	5.54
636.108	5.57
636.44	5.56
636.771	5.52
637.103	5.49
637.434	5.44
637.765	5.41
638.097	5.34
638.428	5.28
638.759	5.29
639.09	5.29
639.422	5.29
639.753	5.24
640.084	5.22
640.415	5.18
640.746	5.17
641.077	5.13
641.407	5.11
641.738	5.09
642.069	5.11
642.4	5.09
642.73	5.06
643.061	5.03
643.392	5.05
643.722	5.09
644.053	5.12
644.383	5.19
644.713	5.17
645.044	5.17
645.374	5.16
645.704	5.12
646.034	5.17
646.365	5.15
646.695	5.16
647.025	5.12
647.355	5.11
647.685	5.14
648.015	5.21
648.344	5.25
