Data from pcis_p_h4_p3_Reflection_4.txt Node
Date: Wed Jul 12 18:05:02 ART 2017
User: rodoncho
Spectrometer: USB2E3644
Trigger mode: 4
Integration Time (sec): 6.000000E-2
Scans to average: 10
Electric dark correction enabled: true
Nonlinearity correction enabled: false
Boxcar width: 10
XAxis mode: Wavelengths
Number of Pixels in Spectrum: 2048
>>>>>Begin Spectral Data<<<<<
178.315	4.63
178.696	22.05
179.076	19.29
179.457	-0.44
179.838	-5.88
180.218	-50
180.599	-103.67
180.979	55
181.36	770.59
181.74	-78.12
182.121	27.47
182.501	101.96
182.881	113.27
183.262	307.48
183.642	-294.03
184.022	-35.91
184.402	32.44
184.783	46.69
185.163	48.31
185.543	54.31
185.923	45.45
186.303	45.5
186.683	56.83
187.063	64.96
187.443	68.87
187.823	75.21
188.203	76.99
188.583	77.83
188.963	81.03
189.343	81.56
189.723	82.76
190.102	84.31
190.482	84.84
190.862	88.24
191.242	89.8
191.621	86.89
192.001	88.33
192.38	89.95
192.76	91.87
193.14	93.81
193.519	91.29
193.898	92.62
194.278	91.9
194.657	90.77
195.037	89.92
195.416	88.91
195.795	85.04
196.175	86.63
196.554	89.26
196.933	89.8
197.312	91.54
197.692	91.6
198.071	92.31
198.45	93.02
198.829	93.76
199.208	93.13
199.587	93.78
199.966	93.2
200.345	93.05
200.724	92.93
201.103	92.13
201.482	93.07
201.86	95.3
202.239	96.19
202.618	95.41
202.997	96.93
203.375	97.33
203.754	99.54
204.133	98.09
204.511	97.02
204.89	96.61
205.269	95.82
205.647	96.99
206.026	96.31
206.404	96.13
206.782	96.39
207.161	96.49
207.539	98.08
207.918	98.45
208.296	98.65
208.674	98.41
209.052	98.76
209.431	98.69
209.809	98.79
210.187	97.35
210.565	97.33
210.943	97.39
211.321	97.71
211.699	96.02
212.077	95.57
212.455	96.77
212.833	97.17
213.211	96.94
213.589	96.48
213.967	97.75
214.345	99.04
214.722	98.66
215.1	99.29
215.478	98.97
215.855	99.52
216.233	99.52
216.611	100.08
216.988	100.65
217.366	99.92
217.743	98.86
218.121	99.92
218.498	101.45
218.876	100.08
219.253	99.45
219.631	100.71
220.008	102.76
220.385	102.77
220.762	102.21
221.14	104.25
221.517	103.93
221.894	102.01
222.271	100.7
222.648	99.92
223.025	100.24
223.402	99.92
223.78	100.24
224.157	99.6
224.533	98.5
224.91	97.35
225.287	98.83
225.664	100
226.041	101.38
226.418	101.21
226.795	102.18
227.171	103.15
227.548	102.01
227.925	101.33
228.301	101.7
228.678	103.27
229.055	103.05
229.431	103.35
229.808	103.85
230.184	104.23
230.561	104.68
230.937	104.76
231.313	105.86
231.69	106.72
232.066	108.42
232.442	109.57
232.819	110.72
233.195	111.94
233.571	112.65
233.947	113.47
234.323	115.39
234.699	117.09
235.075	115.93
235.451	118.97
235.827	120.74
236.203	121.05
236.579	121.36
236.955	122.01
237.331	124.07
237.707	128
238.083	132.98
238.459	138.98
238.834	145.41
239.21	150.32
239.586	155.22
239.961	160.09
240.337	163.87
240.713	165.25
241.088	164.79
241.464	165.11
241.839	171.15
242.215	177.22
242.59	189.3
242.965	224.9
243.341	279.33
243.716	374.64
244.091	557.55
244.467	901.01
244.842	2023.01
245.217	-21441.46
245.592	-5936.24
245.967	-7784.96
246.343	-176300
246.718	9680.22
247.093	16016.36
247.468	-51394.12
247.843	-7694.69
248.218	-2003.48
248.593	-913.73
248.967	-616.03
249.342	-514.19
249.717	-522.16
250.092	-522.51
250.467	-624.88
250.841	-1033.25
251.216	-21324.39
251.591	1300
251.965	667.91
252.34	484.5
252.714	394.45
253.089	344.76
253.463	340.6
253.838	365.89
254.212	395.07
254.587	443.71
254.961	509.39
255.335	740.17
255.71	4288.29
256.084	-799.72
256.458	-347.99
256.832	-225.21
257.206	-185
257.581	-163.89
257.955	-156.46
258.329	-145.89
258.703	-133.5
259.077	-122.09
259.451	-115.46
259.825	-109.05
260.199	-104.81
260.572	-100.55
260.946	-96.44
261.32	-95.2
261.694	-92.19
262.068	-89.46
262.441	-87.81
262.815	-87.04
263.189	-88.77
263.562	-95.17
263.936	-109.18
264.309	-132.41
264.683	-160.81
265.056	-175.9
265.43	-180.96
265.803	-172.63
266.176	-165.26
266.55	-165.56
266.923	-163.2
267.296	-156.54
267.67	-149.16
268.043	-136.29
268.416	-125.85
268.789	-113.64
269.162	-101.55
269.535	-94.4
269.908	-89.87
270.281	-87.55
270.654	-85
271.027	-84.96
271.4	-84.92
271.773	-85.3
272.146	-83.58
272.519	-79.56
272.891	-76.24
273.264	-76.11
273.637	-75.43
274.01	-76.62
274.382	-75.09
274.755	-73.47
275.127	-73.9
275.5	-75.1
275.872	-75.72
276.245	-75.95
276.617	-77.9
276.99	-81.07
277.362	-83.74
277.734	-85.62
278.107	-84.19
278.479	-82.58
278.851	-80.88
279.223	-78.23
279.596	-76.25
279.968	-74.67
280.34	-75.61
280.712	-75.1
281.084	-70.73
281.456	-65.9
281.828	-60.32
282.2	-56.06
282.572	-52.22
282.944	-49.69
283.315	-48.62
283.687	-48.03
284.059	-48.06
284.431	-47.61
284.802	-47.07
285.174	-45.81
285.546	-44.24
285.917	-43.6
286.289	-42.63
286.66	-40.88
287.032	-40.37
287.403	-39.5
287.775	-39.2
288.146	-38.58
288.518	-38.62
288.889	-38.59
289.26	-39.72
289.632	-40.8
290.003	-41.81
290.374	-43.58
290.745	-43.87
291.116	-43.61
291.487	-42.75
291.858	-41.11
292.229	-40.06
292.6	-38.26
292.971	-37
293.342	-35.35
293.713	-33.7
294.084	-32.47
294.455	-32.36
294.826	-31.79
295.196	-31.85
295.567	-31.83
295.938	-31.73
296.308	-31.57
296.679	-31.18
297.05	-30.51
297.42	-29.95
297.791	-29.04
298.161	-28.14
298.532	-27.43
298.902	-26.37
299.272	-25.97
299.643	-25.48
300.013	-25.28
300.383	-24.94
300.754	-24.77
301.124	-25.08
301.494	-25.14
301.864	-25.38
302.234	-25.44
302.604	-25.41
302.974	-24.95
303.344	-24.3
303.714	-23.93
304.084	-23.3
304.454	-22.86
304.824	-21.73
305.194	-20.86
305.563	-20.49
305.933	-19.64
306.303	-18.78
306.673	-18.33
307.042	-17.86
307.412	-17.41
307.781	-16.26
308.151	-15.87
308.521	-15.6
308.89	-15.37
309.259	-15.24
309.629	-14.95
309.998	-14.79
310.368	-14.93
310.737	-14.81
311.106	-14.7
311.475	-14.25
311.845	-14.16
312.214	-14.03
312.583	-14.12
312.952	-14.2
313.321	-14.33
313.69	-14.48
314.059	-14.98
314.428	-15.4
314.797	-15.81
315.166	-16.55
315.535	-17.29
315.904	-17.63
316.272	-17.84
316.641	-17.9
317.01	-18.03
317.379	-18.07
317.747	-17.79
318.116	-17.3
318.484	-17.03
318.853	-16.58
319.221	-16.73
319.59	-16.61
319.958	-16.56
320.327	-16.54
320.695	-16.01
321.063	-15.63
321.432	-15.21
321.8	-14.64
322.168	-13.8
322.536	-12.87
322.905	-11.78
323.273	-11.17
323.641	-10.72
324.009	-10.65
324.377	-10.22
324.745	-9.83
325.113	-9.68
325.481	-9.24
325.849	-8.79
326.216	-8.36
326.584	-8.04
326.952	-7.6
327.32	-7.1
327.687	-6.5
328.055	-5.9
328.423	-5.76
328.79	-5.39
329.158	-5.22
329.525	-4.73
329.893	-4.36
330.26	-4.25
330.628	-4.46
330.995	-4.49
331.362	-4.28
331.73	-3.81
332.097	-3.64
332.464	-3.39
332.831	-2.95
333.199	-2.74
333.566	-2.54
333.933	-2.56
334.3	-2.54
334.667	-2.31
335.034	-2.14
335.401	-2.09
335.768	-2.21
336.135	-2.09
336.502	-2.02
336.868	-1.77
337.235	-1.72
337.602	-1.56
337.969	-1.32
338.335	-1.04
338.702	-0.72
339.069	-0.54
339.435	-0.32
339.802	-0.2
340.168	-0.04
340.535	0.05
340.901	0.09
341.267	0.34
341.634	0.71
342	1
342.366	1.1
342.733	1.35
343.099	1.59
343.465	1.83
343.831	2.01
344.197	2.22
344.563	2.26
344.929	2.42
345.295	2.58
345.661	2.76
346.027	2.99
346.393	3
346.759	3.05
347.125	3.09
347.491	3.27
347.856	3.35
348.222	3.27
348.588	3.37
348.953	3.42
349.319	3.57
349.684	3.66
350.05	3.85
350.415	3.93
350.781	4.05
351.146	4.21
351.512	4.22
351.877	4.29
352.242	4.42
352.608	4.45
352.973	4.41
353.338	4.42
353.703	4.48
354.068	4.71
354.433	4.88
354.798	5.08
355.164	5.16
355.528	5.29
355.893	5.49
356.258	5.6
356.623	5.64
356.988	5.68
357.353	5.83
357.718	5.9
358.082	5.96
358.447	5.94
358.812	6.02
359.176	6.15
359.541	6.24
359.905	6.34
360.27	6.46
360.634	6.56
360.999	6.69
361.363	6.86
361.728	6.87
362.092	6.93
362.456	6.93
362.821	7.04
363.185	7.09
363.549	7.18
363.913	7.28
364.277	7.37
364.641	7.45
365.005	7.53
365.369	7.56
365.733	7.64
366.097	7.8
366.461	7.84
366.825	7.94
367.189	8.06
367.553	8.17
367.916	8.24
368.28	8.33
368.644	8.47
369.007	8.54
369.371	8.67
369.734	8.74
370.098	8.86
370.461	8.9
370.825	9.01
371.188	9.17
371.552	9.25
371.915	9.37
372.278	9.48
372.642	9.59
373.005	9.75
373.368	9.88
373.731	9.96
374.094	10.07
374.457	10.18
374.82	10.21
375.183	10.27
375.546	10.31
375.909	10.42
376.272	10.39
376.635	10.39
376.998	10.42
377.361	10.5
377.723	10.54
378.086	10.61
378.449	10.68
378.811	10.7
379.174	10.76
379.537	10.81
379.899	10.86
380.262	10.93
380.624	10.93
380.987	10.91
381.349	10.92
381.711	10.96
382.074	10.99
382.436	10.98
382.798	10.99
383.16	11.05
383.522	11.06
383.884	11.12
384.247	11.21
384.609	11.26
384.971	11.32
385.333	11.35
385.695	11.39
386.056	11.39
386.418	11.38
386.78	11.41
387.142	11.38
387.504	11.36
387.865	11.3
388.227	11.3
388.589	11.36
388.95	11.37
389.312	11.32
389.673	11.31
390.035	11.31
390.396	11.3
390.758	11.25
391.119	11.25
391.48	11.24
391.842	11.19
392.203	11.15
392.564	11.09
392.925	11.07
393.286	11.03
393.648	11.03
394.009	11.02
394.37	10.95
394.731	10.95
395.092	10.91
395.452	10.88
395.813	10.87
396.174	10.82
396.535	10.78
396.896	10.77
397.257	10.74
397.617	10.78
397.978	10.79
398.338	10.84
398.699	10.82
399.06	10.79
399.42	10.71
399.781	10.67
400.141	10.68
400.501	10.63
400.862	10.61
401.222	10.58
401.582	10.55
401.943	10.58
402.303	10.59
402.663	10.6
403.023	10.63
403.383	10.59
403.743	10.61
404.103	10.64
404.463	10.67
404.823	10.67
405.183	10.64
405.543	10.64
405.903	10.61
406.262	10.59
406.622	10.61
406.982	10.66
407.342	10.67
407.701	10.66
408.061	10.66
408.42	10.69
408.78	10.7
409.139	10.74
409.499	10.74
409.858	10.72
410.217	10.71
410.577	10.7
410.936	10.73
411.295	10.69
411.655	10.65
412.014	10.59
412.373	10.55
412.732	10.51
413.091	10.42
413.45	10.35
413.809	10.33
414.168	10.23
414.527	10.13
414.886	10.05
415.245	9.96
415.603	9.85
415.962	9.71
416.321	9.59
416.679	9.47
417.038	9.35
417.397	9.24
417.755	9.13
418.114	9.02
418.472	8.93
418.831	8.87
419.189	8.82
419.547	8.75
419.906	8.69
420.264	8.62
420.622	8.55
420.981	8.48
421.339	8.4
421.697	8.35
422.055	8.31
422.413	8.28
422.771	8.24
423.129	8.23
423.487	8.24
423.845	8.23
424.203	8.23
424.56	8.23
424.918	8.24
425.276	8.27
425.634	8.29
425.991	8.3
426.349	8.31
426.707	8.31
427.064	8.33
427.422	8.33
427.779	8.37
428.137	8.42
428.494	8.48
428.851	8.56
429.209	8.59
429.566	8.63
429.923	8.65
430.28	8.65
430.637	8.67
430.995	8.66
431.352	8.68
431.709	8.7
432.066	8.72
432.423	8.74
432.78	8.75
433.137	8.77
433.493	8.8
433.85	8.83
434.207	8.84
434.564	8.84
434.92	8.88
435.277	8.88
435.634	8.87
435.99	8.88
436.347	8.86
436.703	8.87
437.06	8.87
437.416	8.86
437.773	8.89
438.129	8.9
438.485	8.92
438.841	8.91
439.198	8.89
439.554	8.89
439.91	8.88
440.266	8.86
440.622	8.84
440.978	8.82
441.334	8.78
441.69	8.73
442.046	8.66
442.402	8.6
442.758	8.53
443.113	8.5
443.469	8.44
443.825	8.4
444.181	8.38
444.536	8.34
444.892	8.3
445.247	8.25
445.603	8.22
445.958	8.18
446.314	8.16
446.669	8.14
447.025	8.11
447.38	8.09
447.735	8.06
448.09	8.04
448.446	8.01
448.801	7.99
449.156	7.96
449.511	7.96
449.866	7.96
450.221	7.98
450.576	7.96
450.931	7.98
451.286	7.96
451.641	7.96
451.995	7.97
452.35	8
452.705	8.03
453.06	8.03
453.414	8.05
453.769	8.06
454.123	8.06
454.478	8.06
454.832	8.06
455.187	8.06
455.541	8.06
455.896	8.05
456.25	8.06
456.604	8.07
456.958	8.08
457.313	8.09
457.667	8.11
458.021	8.14
458.375	8.18
458.729	8.24
459.083	8.27
459.437	8.32
459.791	8.35
460.145	8.38
460.499	8.44
460.852	8.48
461.206	8.55
461.56	8.62
461.914	8.69
462.267	8.77
462.621	8.87
462.974	8.98
463.328	9.12
463.681	9.26
464.035	9.43
464.388	9.58
464.742	9.72
465.095	9.85
465.448	9.99
465.801	10.09
466.155	10.19
466.508	10.3
466.861	10.38
467.214	10.47
467.567	10.57
467.92	10.64
468.273	10.71
468.626	10.78
468.979	10.83
469.332	10.9
469.684	10.96
470.037	11.03
470.39	11.09
470.743	11.15
471.095	11.19
471.448	11.24
471.8	11.26
472.153	11.31
472.505	11.33
472.858	11.32
473.21	11.32
473.562	11.29
473.915	11.23
474.267	11.2
474.619	11.15
474.971	11.08
475.324	11.02
475.676	10.96
476.028	10.88
476.38	10.83
476.732	10.75
477.084	10.65
477.436	10.52
477.787	10.39
478.139	10.26
478.491	10.15
478.843	10.01
479.195	9.86
479.546	9.67
479.898	9.45
480.249	9.25
480.601	9.08
480.952	8.97
481.304	8.89
481.655	8.82
482.007	8.77
482.358	8.72
482.709	8.69
483.061	8.64
483.412	8.62
483.763	8.59
484.114	8.57
484.465	8.55
484.816	8.55
485.167	8.55
485.518	8.55
485.869	8.56
486.22	8.58
486.571	8.61
486.922	8.64
487.272	8.71
487.623	8.79
487.974	8.91
488.324	9.01
488.675	9.12
489.025	9.22
489.376	9.32
489.726	9.42
490.077	9.52
490.427	9.64
490.778	9.75
491.128	9.91
491.478	10.08
491.828	10.28
492.179	10.48
492.529	10.7
492.879	10.93
493.229	11.13
493.579	11.35
493.929	11.53
494.279	11.74
494.629	11.98
494.979	12.25
495.328	12.57
495.678	12.96
496.028	13.32
496.378	13.66
496.727	14.01
497.077	14.33
497.426	14.62
497.776	14.92
498.125	15.2
498.475	15.48
498.824	15.74
499.174	16
499.523	16.27
499.872	16.53
500.221	16.82
500.571	17.13
500.92	17.44
501.269	17.76
501.618	18.05
501.967	18.34
502.316	18.65
502.665	18.92
503.014	19.15
503.363	19.4
503.711	19.65
504.06	19.87
504.409	20.08
504.758	20.32
505.106	20.49
505.455	20.68
505.803	20.85
506.152	21.01
506.5	21.16
506.849	21.31
507.197	21.46
507.546	21.61
507.894	21.74
508.242	21.87
508.59	21.98
508.939	22.09
509.287	22.19
509.635	22.3
509.983	22.4
510.331	22.5
510.679	22.62
511.027	22.7
511.375	22.78
511.723	22.88
512.07	22.96
512.418	23.06
512.766	23.14
513.114	23.25
513.461	23.33
513.809	23.42
514.156	23.49
514.504	23.58
514.851	23.65
515.199	23.72
515.546	23.79
515.893	23.86
516.241	23.93
516.588	23.98
516.935	24.05
517.282	24.09
517.63	24.14
517.977	24.17
518.324	24.22
518.671	24.28
519.018	24.32
519.365	24.38
519.711	24.43
520.058	24.46
520.405	24.49
520.752	24.54
521.099	24.56
521.445	24.62
521.792	24.64
522.138	24.67
522.485	24.73
522.832	24.81
523.178	24.85
523.524	24.9
523.871	24.97
524.217	25.01
524.563	25.03
524.91	25.05
525.256	25.07
525.602	25.09
525.948	25.09
526.294	25.09
526.64	25.1
526.986	25.11
527.332	25.13
527.678	25.15
528.024	25.17
528.37	25.2
528.716	25.22
529.061	25.24
529.407	25.27
529.753	25.28
530.098	25.28
530.444	25.28
530.789	25.28
531.135	25.28
531.48	25.29
531.826	25.33
532.171	25.38
532.516	25.4
532.862	25.44
533.207	25.48
533.552	25.52
533.897	25.54
534.242	25.56
534.587	25.57
534.932	25.58
535.277	25.59
535.622	25.59
535.967	25.61
536.312	25.64
536.657	25.67
537.001	25.69
537.346	25.69
537.691	25.72
538.035	25.73
538.38	25.73
538.724	25.7
539.069	25.69
539.413	25.69
539.758	25.69
540.102	25.71
540.446	25.72
540.791	25.74
541.135	25.76
541.479	25.76
541.823	25.76
542.167	25.77
542.512	25.78
542.856	25.78
543.2	25.77
543.543	25.75
543.887	25.73
544.231	25.74
544.575	25.77
544.919	25.79
545.262	25.8
545.606	25.83
545.95	25.85
546.293	25.86
546.637	25.86
546.98	25.87
547.324	25.86
547.667	25.84
548.011	25.82
548.354	25.78
548.697	25.74
549.04	25.73
549.384	25.69
549.727	25.67
550.07	25.65
550.413	25.65
550.756	25.66
551.099	25.65
551.442	25.63
551.785	25.63
552.128	25.6
552.47	25.58
552.813	25.55
553.156	25.53
553.499	25.5
553.841	25.49
554.184	25.47
554.526	25.42
554.869	25.4
555.211	25.37
555.554	25.39
555.896	25.4
556.238	25.4
556.581	25.38
556.923	25.33
557.265	25.3
557.607	25.25
557.949	25.18
558.291	25.15
558.633	25.11
558.975	25.05
559.317	25
559.659	25
560.001	24.93
560.343	24.91
560.685	24.86
561.026	24.8
561.368	24.75
561.71	24.7
562.051	24.67
562.393	24.62
562.734	24.5
563.076	24.44
563.417	24.38
563.759	24.34
564.1	24.3
564.441	24.24
564.782	24.17
565.124	24.15
565.465	24.1
565.806	24.04
566.147	24.02
566.488	23.98
566.829	23.92
567.17	23.89
567.511	23.82
567.851	23.8
568.192	23.75
568.533	23.72
568.874	23.68
569.214	23.6
569.555	23.57
569.895	23.55
570.236	23.49
570.576	23.42
570.917	23.34
571.257	23.27
571.598	23.25
571.938	23.22
572.278	23.17
572.618	23.12
572.959	23.08
573.299	23
573.639	22.93
573.979	22.89
574.319	22.85
574.659	22.8
574.999	22.75
575.339	22.7
575.678	22.61
576.018	22.54
576.358	22.49
576.698	22.42
577.037	22.37
577.377	22.32
577.716	22.27
578.056	22.23
578.395	22.21
578.735	22.11
579.074	22.01
579.413	21.93
579.753	21.89
580.092	21.83
580.431	21.8
580.77	21.77
581.109	21.68
581.448	21.62
581.787	21.55
582.126	21.48
582.465	21.4
582.804	21.36
583.143	21.35
583.482	21.28
583.82	21.19
584.159	21.17
584.498	21.1
584.836	21.02
585.175	20.99
585.514	20.93
585.852	20.94
586.19	20.86
586.529	20.82
586.867	20.77
587.205	20.69
587.544	20.63
587.882	20.54
588.22	20.47
588.558	20.41
588.896	20.35
589.234	20.3
589.572	20.24
589.91	20.15
590.248	20.06
590.586	20.02
590.924	19.98
591.262	19.91
591.599	19.84
591.937	19.81
592.275	19.72
592.612	19.63
592.95	19.56
593.287	19.55
593.625	19.5
593.962	19.44
594.299	19.44
594.637	19.36
594.974	19.35
595.311	19.34
595.648	19.28
595.985	19.24
596.322	19.22
596.659	19.21
596.996	19.19
597.333	19.11
597.67	19.06
598.007	19
598.344	18.94
598.681	18.9
599.017	18.82
599.354	18.77
599.691	18.74
600.027	18.66
600.364	18.58
600.7	18.52
601.037	18.45
601.373	18.34
601.71	18.33
602.046	18.27
602.382	18.24
602.718	18.19
603.054	18.16
603.391	18.09
603.727	18.02
604.063	17.99
604.399	17.96
604.735	17.92
605.071	17.88
605.406	17.84
605.742	17.83
606.078	17.8
606.414	17.75
606.749	17.72
607.085	17.65
607.421	17.58
607.756	17.49
608.092	17.42
608.427	17.34
608.762	17.21
609.098	17.11
609.433	16.98
609.768	16.89
610.104	16.82
610.439	16.75
610.774	16.69
611.109	16.62
611.444	16.55
611.779	16.5
612.114	16.46
612.449	16.35
612.784	16.26
613.118	16.16
613.453	16.09
613.788	15.94
614.123	15.85
614.457	15.8
614.792	15.78
615.126	15.67
615.461	15.6
615.795	15.54
616.13	15.5
616.464	15.48
616.798	15.46
617.132	15.42
617.467	15.38
617.801	15.29
618.135	15.24
618.469	15.21
618.803	15.13
619.137	15.07
619.471	15.08
619.805	14.99
620.139	14.94
620.472	14.91
620.806	14.88
621.14	14.82
621.473	14.73
621.807	14.66
622.141	14.62
622.474	14.52
622.808	14.51
623.141	14.49
623.474	14.45
623.808	14.4
624.141	14.37
624.474	14.31
624.807	14.3
625.141	14.28
625.474	14.26
625.807	14.25
626.14	14.26
626.473	14.22
626.806	14.24
627.138	14.24
627.471	14.15
627.804	14.15
628.137	14.14
628.469	14.1
628.802	14.02
629.135	13.97
629.467	13.96
629.8	13.89
630.132	13.81
630.465	13.73
630.797	13.71
631.129	13.64
631.461	13.57
631.794	13.52
632.126	13.46
632.458	13.42
632.79	13.36
633.122	13.26
633.454	13.21
633.786	13.13
634.118	13.04
634.45	12.98
634.781	12.89
635.113	12.88
635.445	12.84
635.777	12.78
636.108	12.78
636.44	12.75
636.771	12.69
637.103	12.62
637.434	12.58
637.765	12.51
638.097	12.47
638.428	12.41
638.759	12.36
639.09	12.3
639.422	12.29
639.753	12.21
640.084	12.18
640.415	12.11
640.746	12.05
641.077	11.99
641.407	12
641.738	11.98
642.069	11.89
642.4	11.86
642.73	11.86
643.061	11.83
643.392	11.8
643.722	11.81
644.053	11.76
644.383	11.73
644.713	11.68
645.044	11.63
645.374	11.65
645.704	11.58
646.034	11.54
646.365	11.44
646.695	11.41
647.025	11.36
647.355	11.37
647.685	11.34
648.015	11.37
648.344	11.38
648.674	11.34
649.004	11.3
649.334	11.27
649.663	11.26
649.993	11.25
