Data from pcis_p_h4_p1_Reflection_1.txt Node
Date: Wed Jul 12 18:02:00 ART 2017
User: rodoncho
Spectrometer: USB2E3644
Trigger mode: 4
Integration Time (sec): 6.000000E-2
Scans to average: 10
Electric dark correction enabled: true
Nonlinearity correction enabled: false
Boxcar width: 10
XAxis mode: Wavelengths
Number of Pixels in Spectrum: 2048
>>>>>Begin Spectral Data<<<<<
178.315	-15.52
178.696	-24.05
179.076	-40.62
179.457	-113.04
179.838	-652.63
180.218	-122.39
180.599	92.54
180.979	-81.82
181.36	664.52
181.74	87.5
182.121	-6.56
182.501	76.2
182.881	77.19
183.262	63.9
183.642	13.47
184.022	-426.87
184.402	-7428.57
184.783	588.24
185.163	520.5
185.543	429.18
185.923	417.12
186.303	323.68
186.683	300.23
187.063	278.64
187.443	288.03
187.823	248.06
188.203	209.1
188.583	172.17
188.963	160.06
189.343	154.12
189.723	151.2
190.102	142.92
190.482	131.27
190.862	133.67
191.242	133.48
191.621	135.28
192.001	135.36
192.38	130.64
192.76	125.71
193.14	122.41
193.519	119.89
193.898	118.99
194.278	116.32
194.657	112.13
195.037	107.93
195.416	108.11
195.795	107.84
196.175	108.67
196.554	111.73
196.933	113.15
197.312	114.03
197.692	109.59
198.071	108.92
198.45	108.74
198.829	109
199.208	107.39
199.587	108.56
199.966	107.46
200.345	107.15
200.724	106.88
201.103	105.46
201.482	104.2
201.86	105.63
202.239	107.91
202.618	108.33
202.997	108.66
203.375	107.84
203.754	107.67
204.133	108.93
204.511	107.82
204.89	106.18
205.269	104.87
205.647	105.99
206.026	107.84
206.404	110.2
206.782	108.11
207.161	106.74
207.539	104.56
207.918	104.36
208.296	104.3
208.674	105.09
209.052	106.08
209.431	105.75
209.809	104.03
210.187	103.02
210.565	103.45
210.943	102.7
211.321	102.36
211.699	101.13
212.077	101.12
212.455	102.32
212.833	103.92
213.211	106.33
213.589	106.44
213.967	104.84
214.345	103.26
214.722	103.73
215.1	103.82
215.478	104.14
215.855	105.21
216.233	105.46
216.611	105.8
216.988	105.46
217.366	105.53
217.743	104.88
218.121	103.83
218.498	103.25
218.876	103.87
219.253	103.78
219.631	104.26
220.008	103.83
220.385	103.16
220.762	103.69
221.14	102.46
221.517	102.08
221.894	102.74
222.271	102.15
222.648	101.73
223.025	103.06
223.402	104.1
223.78	104.2
224.157	104.74
224.533	105.07
224.91	106.65
225.287	107.36
225.664	109.61
226.041	111.98
226.418	114.35
226.795	115.9
227.171	117.07
227.548	118.1
227.925	118.89
228.301	120.33
228.678	119.24
229.055	118.6
229.431	118.7
229.808	118.46
230.184	120.4
230.561	121.4
230.937	122.18
231.313	121.96
231.69	121.58
232.066	122.43
232.442	122.76
232.819	121.31
233.195	121.75
233.571	120.68
233.947	120.5
234.323	120.06
234.699	118.86
235.075	117.8
235.451	117.12
235.827	118.07
236.203	118.47
236.579	119.82
236.955	122.21
237.331	124.85
237.707	128.12
238.083	129.92
238.459	135.93
238.834	141.51
239.21	149.73
239.586	156.61
239.961	159.56
240.337	162.69
240.713	168.85
241.088	172.46
241.464	177.56
241.839	183.27
242.215	195.16
242.59	212.44
242.965	259.85
243.341	352.93
243.716	557.51
244.091	1185.77
244.467	8980.2
244.842	-1808.11
245.217	-851.31
245.592	-746.91
245.967	-687.74
246.343	-783.79
246.718	-891.62
247.093	-908.22
247.468	-883.85
247.843	-767.38
248.218	-596.3
248.593	-473
248.967	-387.92
249.342	-350.25
249.717	-351.05
250.092	-357.13
250.467	-387.63
250.841	-498.65
251.216	-836.9
251.591	-3645.56
251.965	2233.87
252.34	1136.57
252.714	823.1
253.089	628.96
253.463	622.11
253.838	649.9
254.212	734.34
254.587	933.27
254.961	1323.47
255.335	4884.26
255.71	-1159.36
256.084	-413.45
256.458	-249.32
256.832	-185.5
257.206	-158.66
257.581	-142.98
257.955	-133.93
258.329	-126.21
258.703	-118.26
259.077	-111.64
259.451	-106.52
259.825	-101.41
260.199	-97.97
260.572	-96.12
260.946	-92.99
261.32	-92.47
261.694	-91.16
262.068	-90.11
262.441	-89.78
262.815	-89.84
263.189	-90.36
263.562	-95.39
263.936	-107.38
264.309	-127.36
264.683	-146.4
265.056	-160.38
265.43	-168.25
265.803	-167.4
266.176	-161.5
266.55	-163.34
266.923	-160.95
267.296	-155.4
267.67	-146.84
268.043	-136.93
268.416	-125.73
268.789	-115.07
269.162	-102.1
269.535	-94.3
269.908	-89.22
270.281	-86.21
270.654	-84.96
271.027	-86.49
271.4	-88.03
271.773	-89.3
272.146	-86.88
272.519	-84.65
272.891	-81.4
273.264	-80.07
273.637	-80.21
274.01	-81.2
274.382	-79.65
274.755	-78.36
275.127	-76.84
275.5	-77.46
275.872	-78.12
276.245	-78.57
276.617	-80.53
276.99	-85.39
277.362	-88.83
277.734	-89.38
278.107	-88.07
278.479	-84.47
278.851	-81.43
279.223	-78.33
279.596	-77.48
279.968	-77.62
280.34	-77.92
280.712	-77.36
281.084	-73.81
281.456	-68.13
281.828	-63.53
282.2	-59.39
282.572	-55.21
282.944	-53.19
283.315	-51.73
283.687	-50.52
284.059	-49.92
284.431	-48.98
284.802	-47.55
285.174	-46.14
285.546	-45.3
285.917	-44.78
286.289	-44.35
286.66	-43.58
287.032	-43.19
287.403	-42.37
287.775	-41.39
288.146	-40.56
288.518	-40.66
288.889	-41.04
289.26	-42.33
289.632	-42.98
290.003	-44.64
290.374	-46.99
290.745	-48.02
291.116	-48.01
291.487	-47
291.858	-45.97
292.229	-45.13
292.6	-43.73
292.971	-42.74
293.342	-40.92
293.713	-38.99
294.084	-37.89
294.455	-37.12
294.826	-36.52
295.196	-36.24
295.567	-36.05
295.938	-35.89
296.308	-35.33
296.679	-34.17
297.05	-32.55
297.42	-31.92
297.791	-30.92
298.161	-29.81
298.532	-29.11
298.902	-28.49
299.272	-28.34
299.643	-28.17
300.013	-27.66
300.383	-27.49
300.754	-27.14
301.124	-27.31
301.494	-27.26
301.864	-26.9
302.234	-27.07
302.604	-27.54
302.974	-27.31
303.344	-27.31
303.714	-27.27
304.084	-27.21
304.454	-27.22
304.824	-27.12
305.194	-26.4
305.563	-25.64
305.933	-24.54
306.303	-23.33
306.673	-22.68
307.042	-21.94
307.412	-21.29
307.781	-20.62
308.151	-20.04
308.521	-19.5
308.89	-19.11
309.259	-18.75
309.629	-18.51
309.998	-18.24
310.368	-17.85
310.737	-17.71
311.106	-17.4
311.475	-16.82
311.845	-16.42
312.214	-16.42
312.583	-16.33
312.952	-16.14
313.321	-15.99
313.69	-16.14
314.059	-16.58
314.428	-16.89
314.797	-17.12
315.166	-17.79
315.535	-18.35
315.904	-18.65
316.272	-18.94
316.641	-19.4
317.01	-20.02
317.379	-20.48
317.747	-20.4
318.116	-19.82
318.484	-19.36
318.853	-18.97
319.221	-18.94
319.59	-18.81
319.958	-18.1
320.327	-17.77
320.695	-17.56
321.063	-17.35
321.432	-17
321.8	-16.54
322.168	-15.57
322.536	-14.84
322.905	-13.65
323.273	-13.03
323.641	-12.47
324.009	-12.2
324.377	-11.63
324.745	-11.12
325.113	-10.88
325.481	-10.53
325.849	-10.24
326.216	-9.86
326.584	-9.45
326.952	-9.13
327.32	-8.64
327.687	-8.46
328.055	-8.12
328.423	-7.9
328.79	-7.78
329.158	-7.7
329.525	-7.3
329.893	-7.16
330.26	-7.02
330.628	-6.99
330.995	-6.71
331.362	-6.58
331.73	-6.22
332.097	-5.85
332.464	-5.47
332.831	-5.01
333.199	-4.68
333.566	-4.49
333.933	-4.48
334.3	-4.52
334.667	-4.22
335.034	-4.14
335.401	-4.06
335.768	-4.07
336.135	-3.97
336.502	-3.66
336.868	-3.36
337.235	-3.13
337.602	-3
337.969	-2.94
338.335	-2.75
338.702	-2.58
339.069	-2.39
339.435	-2.25
339.802	-2.17
340.168	-2.02
340.535	-1.85
340.901	-1.74
341.267	-1.58
341.634	-1.21
342	-0.85
342.366	-0.73
342.733	-0.56
343.099	-0.4
343.465	-0.19
343.831	-0.07
344.197	0.06
344.563	0.07
344.929	0.11
345.295	0.34
345.661	0.53
346.027	0.7
346.393	0.88
346.759	0.94
347.125	1.11
347.491	1.22
347.856	1.19
348.222	1.16
348.588	1.29
348.953	1.38
349.319	1.49
349.684	1.42
350.05	1.54
350.415	1.76
350.781	1.97
351.146	2.11
351.512	2.16
351.877	2.21
352.242	2.41
352.608	2.53
352.973	2.5
353.338	2.52
353.703	2.53
354.068	2.64
354.433	2.81
354.798	2.89
355.164	2.96
355.528	3.1
355.893	3.22
356.258	3.37
356.623	3.43
356.988	3.45
357.353	3.61
357.718	3.71
358.082	3.75
358.447	3.69
358.812	3.73
359.176	3.85
359.541	3.99
359.905	4.1
360.27	4.17
360.634	4.27
360.999	4.37
361.363	4.55
361.728	4.56
362.092	4.63
362.456	4.61
362.821	4.7
363.185	4.76
363.549	4.92
363.913	4.96
364.277	4.99
364.641	5.08
365.005	5.22
365.369	5.24
365.733	5.36
366.097	5.56
366.461	5.65
366.825	5.77
367.189	5.83
367.553	5.86
367.916	5.95
368.28	5.98
368.644	6.15
369.007	6.27
369.371	6.41
369.734	6.48
370.098	6.66
370.461	6.83
370.825	6.96
371.188	7.06
371.552	7.18
371.915	7.38
372.278	7.45
372.642	7.52
373.005	7.65
373.368	7.7
373.731	7.71
374.094	7.84
374.457	7.91
374.82	8.01
375.183	8.08
375.546	8.18
375.909	8.3
376.272	8.28
376.635	8.24
376.998	8.24
377.361	8.28
377.723	8.33
378.086	8.35
378.449	8.44
378.811	8.49
379.174	8.52
379.537	8.56
379.899	8.65
380.262	8.71
380.624	8.75
380.987	8.78
381.349	8.84
381.711	8.83
382.074	8.88
382.436	8.92
382.798	8.95
383.16	8.97
383.522	9.01
383.884	9.08
384.247	9.15
384.609	9.21
384.971	9.26
385.333	9.27
385.695	9.31
386.056	9.28
386.418	9.25
386.78	9.25
387.142	9.2
387.504	9.22
387.865	9.23
388.227	9.22
388.589	9.25
388.95	9.23
389.312	9.23
389.673	9.24
390.035	9.23
390.396	9.21
390.758	9.19
391.119	9.17
391.48	9.2
391.842	9.2
392.203	9.21
392.564	9.19
392.925	9.17
393.286	9.14
393.648	9.14
394.009	9.14
394.37	9.14
394.731	9.14
395.092	9.1
395.452	9.08
395.813	9.11
396.174	9.1
396.535	9.15
396.896	9.15
397.257	9.15
397.617	9.14
397.978	9.16
398.338	9.21
398.699	9.24
399.06	9.19
399.42	9.16
399.781	9.14
400.141	9.11
400.501	9.08
400.862	9.09
401.222	9.1
401.582	9.12
401.943	9.11
402.303	9.15
402.663	9.17
403.023	9.15
403.383	9.11
403.743	9.12
404.103	9.14
404.463	9.18
404.823	9.21
405.183	9.2
405.543	9.23
405.903	9.23
406.262	9.24
406.622	9.27
406.982	9.29
407.342	9.32
407.701	9.38
408.061	9.4
408.42	9.4
408.78	9.41
409.139	9.42
409.499	9.45
409.858	9.47
410.217	9.49
410.577	9.53
410.936	9.55
411.295	9.52
411.655	9.5
412.014	9.44
412.373	9.39
412.732	9.39
413.091	9.34
413.45	9.29
413.809	9.27
414.168	9.19
414.527	9.13
414.886	9.04
415.245	8.96
415.603	8.88
415.962	8.81
416.321	8.73
416.679	8.64
417.038	8.56
417.397	8.45
417.755	8.37
418.114	8.29
418.472	8.23
418.831	8.18
419.189	8.12
419.547	8.06
419.906	8.01
420.264	7.94
420.622	7.88
420.981	7.83
421.339	7.77
421.697	7.75
422.055	7.72
422.413	7.7
422.771	7.69
423.129	7.67
423.487	7.67
423.845	7.67
424.203	7.67
424.56	7.68
424.918	7.7
425.276	7.74
425.634	7.76
425.991	7.79
426.349	7.82
426.707	7.84
427.064	7.88
427.422	7.92
427.779	7.97
428.137	8.02
428.494	8.09
428.851	8.15
429.209	8.17
429.566	8.18
429.923	8.2
430.28	8.2
430.637	8.24
430.995	8.23
431.352	8.26
431.709	8.26
432.066	8.29
432.423	8.3
432.78	8.3
433.137	8.31
433.493	8.3
433.85	8.33
434.207	8.32
434.564	8.35
434.92	8.35
435.277	8.35
435.634	8.36
435.99	8.37
436.347	8.38
436.703	8.39
437.06	8.42
437.416	8.44
437.773	8.46
438.129	8.47
438.485	8.48
438.841	8.48
439.198	8.48
439.554	8.47
439.91	8.46
440.266	8.45
440.622	8.46
440.978	8.45
441.334	8.41
441.69	8.39
442.046	8.34
442.402	8.29
442.758	8.24
443.113	8.2
443.469	8.16
443.825	8.12
444.181	8.11
444.536	8.09
444.892	8.06
445.247	8.04
445.603	8.02
445.958	8.01
446.314	7.97
446.669	7.96
447.025	7.94
447.38	7.91
447.735	7.9
448.09	7.87
448.446	7.86
448.801	7.84
449.156	7.84
449.511	7.85
449.866	7.87
450.221	7.9
450.576	7.9
450.931	7.92
451.286	7.93
451.641	7.93
451.995	7.93
452.35	7.95
452.705	7.95
453.06	7.95
453.414	7.97
453.769	8
454.123	8.01
454.478	8.03
454.832	8.07
455.187	8.07
455.541	8.07
455.896	8.07
456.25	8.08
456.604	8.07
456.958	8.08
457.313	8.1
457.667	8.12
458.021	8.16
458.375	8.21
458.729	8.26
459.083	8.29
459.437	8.34
459.791	8.39
460.145	8.44
460.499	8.5
460.852	8.54
461.206	8.59
461.56	8.64
461.914	8.7
462.267	8.75
462.621	8.83
462.974	8.94
463.328	9.07
463.681	9.21
464.035	9.35
464.388	9.48
464.742	9.59
465.095	9.69
465.448	9.8
465.801	9.88
466.155	9.96
466.508	10.04
466.861	10.1
467.214	10.16
467.567	10.22
467.92	10.28
468.273	10.35
468.626	10.4
468.979	10.45
469.332	10.5
469.684	10.56
470.037	10.59
470.39	10.63
470.743	10.67
471.095	10.7
471.448	10.74
471.8	10.78
472.153	10.81
472.505	10.84
472.858	10.83
473.21	10.82
473.562	10.78
473.915	10.77
474.267	10.75
474.619	10.72
474.971	10.67
475.324	10.63
475.676	10.58
476.028	10.55
476.38	10.48
476.732	10.41
477.084	10.33
477.436	10.27
477.787	10.19
478.139	10.09
478.491	9.97
478.843	9.87
479.195	9.73
479.546	9.57
479.898	9.37
480.249	9.19
480.601	9.06
480.952	8.96
481.304	8.88
481.655	8.82
482.007	8.77
482.358	8.75
482.709	8.7
483.061	8.67
483.412	8.64
483.763	8.62
484.114	8.6
484.465	8.58
484.816	8.57
485.167	8.56
485.518	8.56
485.869	8.57
486.22	8.58
486.571	8.6
486.922	8.64
487.272	8.69
487.623	8.76
487.974	8.85
488.324	8.94
488.675	9.03
489.025	9.11
489.376	9.19
489.726	9.26
490.077	9.35
490.427	9.44
490.778	9.53
491.128	9.64
491.478	9.79
491.828	9.94
492.179	10.1
492.529	10.27
492.879	10.43
493.229	10.6
493.579	10.75
493.929	10.89
494.279	11.03
494.629	11.19
494.979	11.38
495.328	11.61
495.678	11.86
496.028	12.1
496.378	12.34
496.727	12.55
497.077	12.77
497.426	12.98
497.776	13.16
498.125	13.34
498.475	13.52
498.824	13.68
499.174	13.84
499.523	14.02
499.872	14.19
500.221	14.37
500.571	14.54
500.92	14.71
501.269	14.88
501.618	15.04
501.967	15.21
502.316	15.37
502.665	15.52
503.014	15.66
503.363	15.81
503.711	15.95
504.06	16.08
504.409	16.19
504.758	16.27
505.106	16.36
505.455	16.45
505.803	16.52
506.152	16.58
506.5	16.65
506.849	16.71
507.197	16.77
507.546	16.83
507.894	16.9
508.242	16.96
508.59	16.99
508.939	17.05
509.287	17.1
509.635	17.16
509.983	17.2
510.331	17.25
510.679	17.29
511.027	17.3
511.375	17.33
511.723	17.36
512.07	17.39
512.418	17.43
512.766	17.46
513.114	17.5
513.461	17.55
513.809	17.58
514.156	17.62
514.504	17.61
514.851	17.61
515.199	17.61
515.546	17.61
515.893	17.62
516.241	17.64
516.588	17.64
516.935	17.63
517.282	17.62
517.63	17.6
517.977	17.59
518.324	17.6
518.671	17.61
519.018	17.61
519.365	17.6
519.711	17.61
520.058	17.58
520.405	17.58
520.752	17.56
521.099	17.55
521.445	17.54
521.792	17.52
522.138	17.52
522.485	17.52
522.832	17.51
523.178	17.52
523.524	17.51
523.871	17.48
524.217	17.47
524.563	17.43
524.91	17.38
525.256	17.32
525.602	17.29
525.948	17.25
526.294	17.23
526.64	17.2
526.986	17.17
527.332	17.16
527.678	17.14
528.024	17.11
528.37	17.1
528.716	17.08
529.061	17.06
529.407	17.05
529.753	17.01
530.098	16.99
530.444	16.95
530.789	16.93
531.135	16.92
531.48	16.9
531.826	16.9
532.171	16.89
532.516	16.87
532.862	16.84
533.207	16.83
533.552	16.79
533.897	16.79
534.242	16.79
534.587	16.78
534.932	16.78
535.277	16.77
535.622	16.75
535.967	16.75
536.312	16.74
536.657	16.73
537.001	16.72
537.346	16.68
537.691	16.66
538.035	16.6
538.38	16.55
538.724	16.5
539.069	16.45
539.413	16.41
539.758	16.38
540.102	16.34
540.446	16.3
540.791	16.29
541.135	16.25
541.479	16.23
541.823	16.2
542.167	16.17
542.512	16.15
542.856	16.1
543.2	16.06
543.543	16.01
543.887	15.97
544.231	15.94
544.575	15.93
544.919	15.9
545.262	15.88
545.606	15.85
545.95	15.83
546.293	15.81
546.637	15.8
546.98	15.78
547.324	15.77
547.667	15.76
548.011	15.69
548.354	15.65
548.697	15.61
549.04	15.59
549.384	15.54
549.727	15.48
550.07	15.48
550.413	15.44
550.756	15.42
551.099	15.39
551.442	15.35
551.785	15.3
552.128	15.24
552.47	15.2
552.813	15.17
553.156	15.14
553.499	15.1
553.841	15.07
554.184	15.02
554.526	14.97
554.869	14.9
555.211	14.9
555.554	14.88
555.896	14.85
556.238	14.78
556.581	14.74
556.923	14.68
557.265	14.61
557.607	14.57
557.949	14.52
558.291	14.44
558.633	14.4
558.975	14.34
559.317	14.3
559.659	14.25
560.001	14.23
560.343	14.15
560.685	14.09
561.026	14.02
561.368	13.96
561.71	13.87
562.051	13.87
562.393	13.82
562.734	13.76
563.076	13.72
563.417	13.66
563.759	13.61
564.1	13.57
564.441	13.53
564.782	13.47
565.124	13.42
565.465	13.37
565.806	13.33
566.147	13.29
566.488	13.23
566.829	13.18
567.17	13.11
567.511	13.07
567.851	13.02
568.192	13
568.533	12.94
568.874	12.92
569.214	12.83
569.555	12.77
569.895	12.72
570.236	12.66
570.576	12.63
570.917	12.57
571.257	12.54
571.598	12.49
571.938	12.46
572.278	12.46
572.618	12.44
572.959	12.38
573.299	12.34
573.639	12.29
573.979	12.25
574.319	12.23
574.659	12.17
574.999	12.13
575.339	12.08
575.678	12.05
576.018	11.97
576.358	11.91
576.698	11.83
577.037	11.77
577.377	11.72
577.716	11.64
578.056	11.59
578.395	11.51
578.735	11.47
579.074	11.38
579.413	11.29
579.753	11.22
580.092	11.19
580.431	11.14
580.77	11.12
581.109	11.06
581.448	11.01
581.787	10.96
582.126	10.9
582.465	10.84
582.804	10.78
583.143	10.78
583.482	10.77
583.82	10.75
584.159	10.72
584.498	10.68
584.836	10.65
585.175	10.62
585.514	10.61
585.852	10.57
586.19	10.56
586.529	10.52
586.867	10.48
587.205	10.48
587.544	10.46
587.882	10.42
588.22	10.41
588.558	10.38
588.896	10.39
589.234	10.36
589.572	10.31
589.91	10.29
590.248	10.26
590.586	10.23
590.924	10.23
591.262	10.2
591.599	10.14
591.937	10.13
592.275	10.07
592.612	10.02
592.95	10
593.287	9.96
593.625	9.96
593.962	9.96
594.299	9.93
594.637	9.92
594.974	9.88
595.311	9.85
595.648	9.81
595.985	9.78
596.322	9.74
596.659	9.74
596.996	9.7
597.333	9.65
597.67	9.6
598.007	9.56
598.344	9.52
598.681	9.5
599.017	9.44
599.354	9.44
599.691	9.42
600.027	9.39
600.364	9.37
600.7	9.35
601.037	9.33
601.373	9.3
601.71	9.28
602.046	9.29
602.382	9.27
602.718	9.26
603.054	9.24
603.391	9.22
603.727	9.19
604.063	9.19
604.399	9.19
604.735	9.2
605.071	9.2
605.406	9.19
605.742	9.18
606.078	9.19
606.414	9.19
606.749	9.19
607.085	9.19
607.421	9.15
607.756	9.08
608.092	9.04
608.427	8.97
608.762	8.93
609.098	8.86
609.433	8.83
609.768	8.79
610.104	8.77
610.439	8.76
610.774	8.71
611.109	8.66
611.444	8.62
611.779	8.58
612.114	8.53
612.449	8.49
612.784	8.46
613.118	8.41
613.453	8.34
613.788	8.27
614.123	8.16
614.457	8.11
614.792	8.14
615.126	8.09
615.461	8.05
615.795	7.99
616.13	7.96
616.464	7.93
616.798	7.91
617.132	7.85
617.467	7.83
617.801	7.8
618.135	7.77
618.469	7.75
618.803	7.71
619.137	7.7
619.471	7.65
619.805	7.59
620.139	7.56
620.472	7.54
620.806	7.51
621.14	7.52
621.473	7.49
621.807	7.42
622.141	7.39
622.474	7.36
622.808	7.33
623.141	7.33
623.474	7.34
623.808	7.34
624.141	7.35
624.474	7.35
624.807	7.37
625.141	7.38
625.474	7.37
625.807	7.37
626.14	7.37
626.473	7.4
626.806	7.44
627.138	7.45
627.471	7.42
627.804	7.44
628.137	7.44
628.469	7.44
628.802	7.39
629.135	7.37
629.467	7.35
629.8	7.36
630.132	7.33
630.465	7.32
630.797	7.29
631.129	7.28
631.461	7.27
631.794	7.29
632.126	7.25
632.458	7.24
632.79	7.25
633.122	7.25
633.454	7.23
633.786	7.2
634.118	7.18
634.45	7.18
634.781	7.11
635.113	7.07
635.445	7.06
635.777	7.05
636.108	7.05
636.44	7.02
636.771	6.99
637.103	6.97
637.434	6.92
637.765	6.89
638.097	6.84
638.428	6.8
638.759	6.73
639.09	6.69
639.422	6.67
639.753	6.61
640.084	6.58
640.415	6.54
640.746	6.53
641.077	6.51
641.407	6.48
641.738	6.5
642.069	6.5
642.4	6.51
642.73	6.53
643.061	6.51
643.392	6.55
643.722	6.59
644.053	6.57
644.383	6.58
644.713	6.56
645.044	6.56
645.374	6.51
645.704	6.47
646.034	6.48
646.365	6.47
646.695	6.45
647.025	6.42
647.355	6.41
647.685	6.4
648.015	6.42
648.344	6.46
648.674	6.48
649.004	6.47
649.334	6.47
649.663	6.49
649.993	6.5
650.323	6.49
650.652	6.44
650.982	6.45
651.311	6.45
651.64	6.45
651.97	6.43
652.299	6.45
652.628	6.47
652.958	6.48
653.287	6.49
653.616	6.5
653.945	6.52
654.274	6.48
