Data from pcis_c_h1_p3_Reflection_1.txt Node
Date: Wed Jul 12 17:25:34 ART 2017
User: rodoncho
Spectrometer: USB2E3644
Trigger mode: 4
Integration Time (sec): 6.000000E-2
Scans to average: 10
Electric dark correction enabled: true
Nonlinearity correction enabled: false
Boxcar width: 10
XAxis mode: Wavelengths
Number of Pixels in Spectrum: 2048
>>>>>Begin Spectral Data<<<<<
178.315	10
178.696	58.62
179.076	116.27
179.457	62.66
179.838	88.81
180.218	218.87
180.599	-26.56
180.979	13.33
181.36	-51.74
181.74	-65.14
182.121	-743.75
182.501	62.39
182.881	45.82
183.262	0.29
183.642	-130.9
184.022	-817.31
184.402	777.03
184.783	280.71
185.163	256.56
185.543	230.85
185.923	171.94
186.303	155.09
186.683	165.67
187.063	162.3
187.443	147.99
187.823	153.12
188.203	159.87
188.583	158.36
188.963	152.18
189.343	147.95
189.723	143.65
190.102	137.22
190.482	129.47
190.862	131.38
191.242	131.79
191.621	133.35
192.001	133.9
192.38	137.06
192.76	131.94
193.14	129.69
193.519	124.57
193.898	127.47
194.278	124.75
194.657	119.98
195.037	118.78
195.416	117.58
195.795	115.44
196.175	113.35
196.554	112.88
196.933	110.56
197.312	106.06
197.692	105.1
198.071	106.16
198.45	107.87
198.829	107.84
199.208	108.22
199.587	106.99
199.966	105.25
200.345	105.95
200.724	107.34
201.103	108.16
201.482	109.37
201.86	108.65
202.239	108.09
202.618	107.54
202.997	107.66
203.375	108.59
203.754	109.35
204.133	110.5
204.511	109.06
204.89	109.02
205.269	109.01
205.647	109.14
206.026	110.05
206.404	109.88
206.782	109.06
207.161	108.87
207.539	109.17
207.918	109.32
208.296	106.77
208.674	106.09
209.052	104.99
209.431	105.17
209.809	105.62
210.187	105.61
210.565	106.98
210.943	107.28
211.321	106.6
211.699	106.38
212.077	105.35
212.455	105.36
212.833	105.85
213.211	108.56
213.589	108.8
213.967	108.41
214.345	108.08
214.722	108.87
215.1	108.12
215.478	107.09
215.855	107.1
216.233	107.73
216.611	107.91
216.988	108.11
217.366	107.38
217.743	107.36
218.121	110.04
218.498	111.01
218.876	110.39
219.253	110.23
219.631	110.72
220.008	110.26
220.385	109.69
220.762	109.62
221.14	108.84
221.517	109.04
221.894	108.8
222.271	108.47
222.648	107.99
223.025	107.77
223.402	109.15
223.78	110.82
224.157	111.19
224.533	111.41
224.91	111.46
225.287	112.52
225.664	112.96
226.041	110.7
226.418	109.1
226.795	109.78
227.171	109.43
227.548	108.59
227.925	109.71
228.301	113.26
228.678	114.88
229.055	114.44
229.431	114.08
229.808	114.6
230.184	113.91
230.561	113.07
230.937	112.91
231.313	111.77
231.69	110.17
232.066	110.48
232.442	109.84
232.819	110.18
233.195	109.46
233.571	107.8
233.947	108.59
234.323	109.05
234.699	108.83
235.075	109.23
235.451	109.82
235.827	109.68
236.203	108.18
236.579	108.12
236.955	109.57
237.331	110.84
237.707	111.62
238.083	113.47
238.459	117.73
238.834	124.27
239.21	131.06
239.586	138.46
239.961	142.92
240.337	146.42
240.713	147.91
241.088	149.6
241.464	155.9
241.839	161.24
242.215	171.24
242.59	183.7
242.965	211.85
243.341	258.55
243.716	347.32
244.091	501.26
244.467	690.18
244.842	1040.74
245.217	1778.16
245.592	3558.63
245.967	11545.35
246.343	5145.88
246.718	2847.14
247.093	2148.25
247.468	1789.74
247.843	2374.12
248.218	8524.55
248.593	-2750.88
248.967	-1114.06
249.342	-899.9
249.717	-889.03
250.092	-1017.91
250.467	-1306.94
250.841	-3979.74
251.216	2062.61
251.591	786.97
251.965	509.52
252.34	429.51
252.714	385.88
253.089	364.36
253.463	339.17
253.838	330.51
254.212	351.57
254.587	381.8
254.961	450.51
255.335	667.89
255.71	2072.63
256.084	-1031.14
256.458	-418.36
256.832	-279.17
257.206	-223.96
257.581	-195.93
257.955	-180.45
258.329	-169.02
258.703	-157.83
259.077	-147.28
259.451	-140.82
259.825	-134.68
260.199	-128.93
260.572	-125.63
260.946	-120.68
261.32	-116.7
261.694	-111.61
262.068	-109.57
262.441	-108.48
262.815	-108.05
263.189	-109.54
263.562	-116.22
263.936	-134.01
264.309	-161.51
264.683	-191.61
265.056	-217.16
265.43	-231.47
265.803	-236.54
266.176	-234.59
266.55	-231.21
266.923	-224.44
267.296	-213.79
267.67	-200.53
268.043	-181.9
268.416	-162.2
268.789	-146.67
269.162	-130.18
269.535	-122.33
269.908	-114.05
270.281	-108.48
270.654	-106.48
271.027	-108.63
271.4	-110.24
271.773	-111.7
272.146	-111.47
272.519	-106.88
272.891	-101.9
273.264	-99.94
273.637	-97.67
274.01	-96.77
274.382	-95.33
274.755	-93.71
275.127	-92.66
275.5	-92.55
275.872	-93.68
276.245	-95.47
276.617	-98.82
276.99	-106.06
277.362	-108.89
277.734	-111.46
278.107	-110.26
278.479	-106.07
278.851	-101.57
279.223	-97.28
279.596	-93.59
279.968	-90.33
280.34	-89.87
280.712	-87.33
281.084	-82.37
281.456	-76.1
281.828	-70.61
282.2	-65.69
282.572	-61.14
282.944	-58.39
283.315	-56.79
283.687	-56.28
284.059	-56.48
284.431	-55.2
284.802	-53.29
285.174	-51.31
285.546	-49.95
285.917	-49.01
286.289	-47.61
286.66	-46.31
287.032	-45.81
287.403	-44.86
287.775	-44.56
288.146	-44.28
288.518	-44.08
288.889	-44.3
289.26	-45.42
289.632	-46.26
290.003	-47.73
290.374	-49.32
290.745	-50.21
291.116	-50.19
291.487	-48.95
291.858	-47.03
292.229	-45.97
292.6	-44.32
292.971	-42.66
293.342	-40.34
293.713	-38.53
294.084	-37.51
294.455	-36.69
294.826	-36.15
295.196	-36.69
295.567	-36.81
295.938	-36.14
296.308	-36.05
296.679	-35.23
297.05	-34.65
297.42	-34.14
297.791	-33.28
298.161	-32.89
298.532	-32.54
298.902	-31.94
299.272	-31.37
299.643	-30.55
300.013	-30.05
300.383	-30.09
300.754	-30.2
301.124	-30.82
301.494	-31.59
301.864	-31.99
302.234	-32.61
302.604	-32.89
302.974	-32.14
303.344	-31.19
303.714	-31.04
304.084	-30.12
304.454	-29.89
304.824	-28.82
305.194	-28.11
305.563	-27.49
305.933	-26.02
306.303	-24.54
306.673	-23.73
307.042	-23.01
307.412	-22.45
307.781	-21.9
308.151	-21.07
308.521	-20.37
308.89	-19.81
309.259	-18.91
309.629	-18.54
309.998	-18.14
310.368	-17.7
310.737	-17.13
311.106	-16.8
311.475	-16.48
311.845	-16.37
312.214	-15.83
312.583	-15.68
312.952	-15.09
313.321	-14.64
313.69	-14.71
314.059	-14.94
314.428	-14.84
314.797	-14.86
315.166	-15.58
315.535	-15.68
315.904	-15.79
316.272	-16.15
316.641	-16.3
317.01	-16.73
317.379	-16.5
317.747	-15.96
318.116	-15.49
318.484	-15.34
318.853	-14.66
319.221	-14.01
319.59	-13.52
319.958	-13.24
320.327	-12.66
320.695	-12.47
321.063	-12.25
321.432	-11.93
321.8	-11.2
322.168	-10.31
322.536	-9.78
322.905	-8.51
323.273	-7.59
323.641	-7
324.009	-6.77
324.377	-6.35
324.745	-5.72
325.113	-5.3
325.481	-4.83
325.849	-4.36
326.216	-3.92
326.584	-3.68
326.952	-3.44
327.32	-3.2
327.687	-2.65
328.055	-2.34
328.423	-1.85
328.79	-1.61
329.158	-1.29
329.525	-1.01
329.893	-0.97
330.26	-0.68
330.628	-0.74
330.995	-0.63
331.362	-0.29
331.73	0.47
332.097	1.02
332.464	1.39
332.831	1.61
333.199	1.84
333.566	2.19
333.933	2.42
334.3	2.55
334.667	2.74
335.034	2.91
335.401	2.9
335.768	2.93
336.135	3.03
336.502	3.26
336.868	3.57
337.235	3.84
337.602	4.25
337.969	4.57
338.335	4.95
338.702	5.25
339.069	5.58
339.435	5.67
339.802	5.7
340.168	6.04
340.535	6.3
340.901	6.6
341.267	6.81
341.634	7.16
342	7.49
342.366	7.84
342.733	8.19
343.099	8.36
343.465	8.76
343.831	9.06
344.197	9.37
344.563	9.45
344.929	9.64
345.295	9.86
345.661	10.06
346.027	10.19
346.393	10.36
346.759	10.41
347.125	10.59
347.491	10.71
347.856	10.67
348.222	10.92
348.588	10.99
348.953	11.07
349.319	11.2
349.684	11.31
350.05	11.33
350.415	11.54
350.781	11.79
351.146	11.96
351.512	12.11
351.877	12.24
352.242	12.42
352.608	12.56
352.973	12.62
353.338	12.66
353.703	12.73
354.068	12.96
354.433	13.09
354.798	13.26
355.164	13.5
355.528	13.68
355.893	13.63
356.258	13.85
356.623	13.97
356.988	14.02
357.353	14.19
357.718	14.39
358.082	14.49
358.447	14.56
358.812	14.65
359.176	14.75
359.541	14.81
359.905	14.91
360.27	14.95
360.634	15.07
360.999	15.19
361.363	15.35
361.728	15.31
362.092	15.45
362.456	15.49
362.821	15.55
363.185	15.58
363.549	15.73
363.913	15.72
364.277	15.86
364.641	15.95
365.005	16.04
365.369	16.05
365.733	16.07
366.097	16.13
366.461	16.08
366.825	16.12
367.189	16.25
367.553	16.35
367.916	16.51
368.28	16.56
368.644	16.69
369.007	16.8
369.371	16.97
369.734	17.03
370.098	17.17
370.461	17.25
370.825	17.34
371.188	17.47
371.552	17.57
371.915	17.55
372.278	17.68
372.642	17.71
373.005	17.8
373.368	17.81
373.731	17.86
374.094	17.89
374.457	17.91
374.82	17.91
375.183	17.92
375.546	17.92
375.909	17.94
376.272	17.92
376.635	17.9
376.998	17.85
377.361	17.79
377.723	17.73
378.086	17.75
378.449	17.79
378.811	17.84
379.174	17.85
379.537	17.88
379.899	17.85
380.262	17.93
380.624	17.97
380.987	17.96
381.349	18.03
381.711	18.07
382.074	18.15
382.436	18.16
382.798	18.17
383.16	18.1
383.522	18.14
383.884	18.19
384.247	18.23
384.609	18.27
384.971	18.28
385.333	18.28
385.695	18.27
386.056	18.23
386.418	18.09
386.78	18.08
387.142	18.02
387.504	17.99
387.865	17.96
388.227	17.89
388.589	17.89
388.95	17.81
389.312	17.74
389.673	17.65
390.035	17.53
390.396	17.47
390.758	17.48
391.119	17.38
391.48	17.26
391.842	17.17
392.203	17.05
392.564	16.98
392.925	16.92
393.286	16.82
393.648	16.73
394.009	16.66
394.37	16.55
394.731	16.47
395.092	16.34
395.452	16.25
395.813	16.18
396.174	16.12
396.535	16.04
396.896	15.96
397.257	15.92
397.617	15.88
397.978	15.78
398.338	15.71
398.699	15.63
399.06	15.59
399.42	15.48
399.781	15.45
400.141	15.37
400.501	15.27
400.862	15.22
401.222	15.15
401.582	15.1
401.943	15.08
402.303	15.07
402.663	15.08
403.023	14.99
403.383	14.93
403.743	14.9
404.103	14.89
404.463	14.91
404.823	14.86
405.183	14.83
405.543	14.83
405.903	14.76
406.262	14.73
406.622	14.7
406.982	14.73
407.342	14.69
407.701	14.69
408.061	14.67
408.42	14.63
408.78	14.67
409.139	14.68
409.499	14.65
409.858	14.64
410.217	14.63
410.577	14.64
410.936	14.61
411.295	14.53
411.655	14.49
412.014	14.4
412.373	14.34
412.732	14.29
413.091	14.22
413.45	14.13
413.809	14.08
414.168	13.97
414.527	13.83
414.886	13.68
415.245	13.56
415.603	13.44
415.962	13.31
416.321	13.14
416.679	13
417.038	12.85
417.397	12.67
417.755	12.48
418.114	12.32
418.472	12.2
418.831	12.1
419.189	11.98
419.547	11.86
419.906	11.75
420.264	11.62
420.622	11.51
420.981	11.41
421.339	11.3
421.697	11.2
422.055	11.12
422.413	11.05
422.771	11
423.129	10.95
423.487	10.91
423.845	10.86
424.203	10.82
424.56	10.77
424.918	10.76
425.276	10.77
425.634	10.78
425.991	10.78
426.349	10.75
426.707	10.76
427.064	10.78
427.422	10.77
427.779	10.81
428.137	10.83
428.494	10.91
428.851	10.96
429.209	11.01
429.566	11.05
429.923	11.06
430.28	11.05
430.637	11.05
430.995	11.06
431.352	11.11
431.709	11.15
432.066	11.21
432.423	11.23
432.78	11.25
433.137	11.29
433.493	11.32
433.85	11.39
434.207	11.41
434.564	11.43
434.92	11.46
435.277	11.48
435.634	11.51
435.99	11.5
436.347	11.53
436.703	11.54
437.06	11.54
437.416	11.58
437.773	11.59
438.129	11.61
438.485	11.62
438.841	11.63
439.198	11.63
439.554	11.62
439.91	11.59
440.266	11.57
440.622	11.52
440.978	11.48
441.334	11.4
441.69	11.35
442.046	11.27
442.402	11.16
442.758	11.05
443.113	10.95
443.469	10.86
443.825	10.78
444.181	10.7
444.536	10.65
444.892	10.58
445.247	10.51
445.603	10.45
445.958	10.38
446.314	10.3
446.669	10.23
447.025	10.16
447.38	10.12
447.735	10.05
448.09	9.99
448.446	9.94
448.801	9.89
449.156	9.85
449.511	9.82
449.866	9.8
450.221	9.79
450.576	9.78
450.931	9.76
451.286	9.74
451.641	9.74
451.995	9.72
452.35	9.72
452.705	9.71
453.06	9.71
453.414	9.73
453.769	9.77
454.123	9.79
454.478	9.79
454.832	9.82
455.187	9.81
455.541	9.85
455.896	9.86
456.25	9.88
456.604	9.89
456.958	9.9
457.313	9.94
457.667	9.99
458.021	10.04
458.375	10.12
458.729	10.19
459.083	10.25
459.437	10.32
459.791	10.39
460.145	10.48
460.499	10.56
460.852	10.64
461.206	10.72
461.56	10.83
461.914	10.95
462.267	11.06
462.621	11.23
462.974	11.39
463.328	11.6
463.681	11.81
464.035	12.05
464.388	12.28
464.742	12.49
465.095	12.68
465.448	12.88
465.801	13.05
466.155	13.21
466.508	13.37
466.861	13.52
467.214	13.65
467.567	13.79
467.92	13.93
468.273	14.05
468.626	14.14
468.979	14.25
469.332	14.35
469.684	14.44
470.037	14.51
470.39	14.59
470.743	14.65
471.095	14.72
471.448	14.76
471.8	14.8
472.153	14.83
472.505	14.82
472.858	14.79
473.21	14.77
473.562	14.71
473.915	14.63
474.267	14.55
474.619	14.46
474.971	14.32
475.324	14.19
475.676	14.06
476.028	13.96
476.38	13.81
476.732	13.65
477.084	13.5
477.436	13.31
477.787	13.12
478.139	12.94
478.491	12.76
478.843	12.55
479.195	12.32
479.546	12.05
479.898	11.76
480.249	11.47
480.601	11.23
480.952	11.05
481.304	10.93
481.655	10.82
482.007	10.75
482.358	10.69
482.709	10.64
483.061	10.6
483.412	10.55
483.763	10.51
484.114	10.49
484.465	10.47
484.816	10.47
485.167	10.47
485.518	10.48
485.869	10.5
486.22	10.53
486.571	10.57
486.922	10.64
487.272	10.72
487.623	10.85
487.974	11.02
488.324	11.21
488.675	11.38
489.025	11.55
489.376	11.7
489.726	11.86
490.077	12.02
490.427	12.2
490.778	12.4
491.128	12.64
491.478	12.9
491.828	13.21
492.179	13.53
492.529	13.87
492.879	14.21
493.229	14.54
493.579	14.89
493.929	15.23
494.279	15.56
494.629	15.96
494.979	16.43
495.328	16.97
495.678	17.56
496.028	18.15
496.378	18.72
496.727	19.28
497.077	19.79
497.426	20.31
497.776	20.8
498.125	21.27
498.475	21.75
498.824	22.22
499.174	22.66
499.523	23.11
499.872	23.58
500.221	24.08
500.571	24.58
500.92	25.08
501.269	25.58
501.618	26.08
501.967	26.56
502.316	27.02
502.665	27.47
503.014	27.91
503.363	28.35
503.711	28.78
504.06	29.18
504.409	29.56
504.758	29.91
505.106	30.26
505.455	30.58
505.803	30.87
506.152	31.14
506.5	31.44
506.849	31.7
507.197	31.95
507.546	32.22
507.894	32.49
508.242	32.74
508.59	32.95
508.939	33.15
509.287	33.33
509.635	33.52
509.983	33.71
510.331	33.87
510.679	34.01
511.027	34.13
511.375	34.27
511.723	34.44
512.07	34.6
512.418	34.72
512.766	34.88
513.114	35.07
513.461	35.24
513.809	35.35
514.156	35.48
514.504	35.58
514.851	35.66
515.199	35.78
515.546	35.9
515.893	36.03
516.241	36.15
516.588	36.25
516.935	36.34
517.282	36.41
517.63	36.51
517.977	36.63
518.324	36.73
518.671	36.83
519.018	36.91
519.365	36.99
519.711	37.07
520.058	37.15
520.405	37.2
520.752	37.25
521.099	37.34
521.445	37.43
521.792	37.56
522.138	37.65
522.485	37.72
522.832	37.83
523.178	37.92
523.524	37.98
523.871	38.08
524.217	38.14
524.563	38.2
524.91	38.27
525.256	38.29
525.602	38.36
525.948	38.38
526.294	38.41
526.64	38.43
526.986	38.46
527.332	38.5
527.678	38.52
528.024	38.56
528.37	38.6
528.716	38.62
529.061	38.62
529.407	38.66
529.753	38.69
530.098	38.7
530.444	38.71
530.789	38.74
531.135	38.76
531.48	38.79
531.826	38.85
532.171	38.88
532.516	38.93
532.862	38.98
533.207	39.01
533.552	39.04
533.897	39.05
534.242	39.08
534.587	39.09
534.932	39.13
535.277	39.13
535.622	39.13
535.967	39.18
536.312	39.22
536.657	39.24
537.001	39.27
537.346	39.31
537.691	39.36
538.035	39.38
538.38	39.38
538.724	39.37
539.069	39.38
539.413	39.38
539.758	39.39
540.102	39.39
540.446	39.41
540.791	39.44
541.135	39.48
541.479	39.49
541.823	39.49
542.167	39.45
542.512	39.44
542.856	39.41
543.2	39.39
543.543	39.38
543.887	39.37
544.231	39.37
544.575	39.39
544.919	39.39
545.262	39.4
545.606	39.4
545.95	39.41
546.293	39.39
546.637	39.4
546.98	39.39
547.324	39.37
547.667	39.33
548.011	39.31
548.354	39.24
548.697	39.2
549.04	39.18
549.384	39.18
549.727	39.17
550.07	39.16
550.413	39.13
550.756	39.13
551.099	39.13
551.442	39.09
551.785	39.05
552.128	38.97
552.47	38.95
552.813	38.92
553.156	38.86
553.499	38.8
553.841	38.71
554.184	38.65
554.526	38.6
554.869	38.57
555.211	38.52
555.554	38.49
555.896	38.44
556.238	38.4
556.581	38.35
556.923	38.28
557.265	38.23
557.607	38.15
557.949	38.03
558.291	37.98
558.633	37.93
558.975	37.87
559.317	37.87
559.659	37.78
560.001	37.71
560.343	37.68
560.685	37.63
561.026	37.58
561.368	37.52
561.71	37.47
562.051	37.42
562.393	37.36
562.734	37.32
563.076	37.25
563.417	37.15
563.759	37.1
564.1	37.08
564.441	37.04
564.782	37.01
565.124	36.97
565.465	36.9
565.806	36.82
566.147	36.75
566.488	36.67
566.829	36.59
567.17	36.52
567.511	36.42
567.851	36.39
568.192	36.34
568.533	36.28
568.874	36.23
569.214	36.15
569.555	36.05
569.895	35.96
570.236	35.89
570.576	35.84
570.917	35.72
571.257	35.61
571.598	35.49
571.938	35.39
572.278	35.37
572.618	35.28
572.959	35.2
573.299	35.1
573.639	35.03
573.979	34.96
574.319	34.9
574.659	34.83
574.999	34.7
575.339	34.6
575.678	34.52
576.018	34.4
576.358	34.31
576.698	34.2
577.037	34.12
577.377	34.01
577.716	33.92
578.056	33.88
578.395	33.76
578.735	33.68
579.074	33.55
579.413	33.4
579.753	33.31
580.092	33.24
580.431	33.19
580.77	33.08
581.109	33
581.448	32.86
581.787	32.75
582.126	32.66
582.465	32.54
582.804	32.41
583.143	32.32
583.482	32.16
583.82	32.06
584.159	31.92
584.498	31.79
584.836	31.64
585.175	31.53
585.514	31.43
585.852	31.34
586.19	31.23
586.529	31.11
586.867	30.99
587.205	30.89
587.544	30.74
587.882	30.66
588.22	30.55
588.558	30.45
588.896	30.4
589.234	30.31
589.572	30.2
589.91	30.14
590.248	30.03
590.586	29.96
590.924	29.87
591.262	29.81
591.599	29.78
591.937	29.74
592.275	29.61
592.612	29.52
592.95	29.41
593.287	29.34
593.625	29.27
593.962	29.18
594.299	29.07
594.637	29.03
594.974	28.96
595.311	28.88
595.648	28.83
595.985	28.73
596.322	28.65
596.659	28.61
596.996	28.49
597.333	28.42
597.67	28.32
598.007	28.25
598.344	28.15
598.681	28.02
599.017	27.91
599.354	27.82
599.691	27.75
600.027	27.67
600.364	27.57
600.7	27.47
601.037	27.34
601.373	27.25
601.71	27.13
602.046	27.02
602.382	26.94
602.718	26.83
603.054	26.76
603.391	26.7
603.727	26.61
604.063	26.53
604.399	26.47
604.735	26.4
605.071	26.34
605.406	26.26
605.742	26.21
606.078	26.15
606.414	26.08
606.749	25.99
607.085	25.88
607.421	25.78
607.756	25.65
608.092	25.55
608.427	25.42
608.762	25.29
609.098	25.15
609.433	25.03
609.768	24.94
610.104	24.81
610.439	24.73
610.774	24.64
611.109	24.55
611.444	24.44
611.779	24.37
612.114	24.27
612.449	24.13
612.784	24.02
613.118	23.89
613.453	23.78
613.788	23.61
614.123	23.44
614.457	23.32
614.792	23.19
615.126	23.08
615.461	22.95
615.795	22.87
616.13	22.8
616.464	22.67
616.798	22.56
617.132	22.5
617.467	22.4
617.801	22.27
618.135	22.2
618.469	22.11
618.803	21.98
619.137	21.89
619.471	21.85
619.805	21.71
620.139	21.62
620.472	21.54
620.806	21.48
621.14	21.45
621.473	21.38
621.807	21.32
622.141	21.22
622.474	21.14
622.808	21.03
623.141	20.93
623.474	20.9
623.808	20.86
624.141	20.83
624.474	20.74
624.807	20.71
625.141	20.63
625.474	20.56
625.807	20.56
626.14	20.51
626.473	20.45
626.806	20.44
627.138	20.38
627.471	20.32
627.804	20.29
628.137	20.26
628.469	20.18
628.802	20.1
629.135	20.05
629.467	20.01
629.8	19.96
630.132	19.92
630.465	19.81
630.797	19.71
631.129	19.62
631.461	19.58
631.794	19.52
632.126	19.49
632.458	19.42
632.79	19.32
633.122	19.24
633.454	19.21
633.786	19.12
634.118	19.05
634.45	18.97
634.781	18.87
635.113	18.84
635.445	18.81
635.777	18.75
636.108	18.73
636.44	18.65
636.771	18.56
637.103	18.44
637.434	18.41
637.765	18.33
638.097	18.23
638.428	18.09
638.759	18.02
639.09	17.95
639.422	17.89
639.753	17.82
640.084	17.78
640.415	17.68
640.746	17.6
641.077	17.53
641.407	17.44
641.738	17.36
642.069	17.26
642.4	17.17
