Data from pcis_p_m4_p6_Reflection_2.txt Node
Date: Wed Jul 12 18:00:59 ART 2017
User: rodoncho
Spectrometer: USB2E3644
Trigger mode: 4
Integration Time (sec): 6.000000E-2
Scans to average: 10
Electric dark correction enabled: true
Nonlinearity correction enabled: false
Boxcar width: 10
XAxis mode: Wavelengths
Number of Pixels in Spectrum: 2048
>>>>>Begin Spectral Data<<<<<
178.315	226.84
178.696	97.14
179.076	81.19
179.457	79.39
179.838	65.93
180.218	49.43
180.599	24.84
180.979	0
181.36	147.5
181.74	-742.86
182.121	170
182.501	90.48
182.881	82.7
183.262	45.68
183.642	-102.34
184.022	-707.89
184.402	347.32
184.783	273.71
185.163	221.68
185.543	163.28
185.923	143.7
186.303	127.14
186.683	114.4
187.063	107.36
187.443	101.97
187.823	93.31
188.203	92.9
188.583	90.32
188.963	93.41
189.343	97.98
189.723	99.57
190.102	104.68
190.482	105.51
190.862	106.38
191.242	105.78
191.621	106.19
192.001	107.28
192.38	109.69
192.76	106.17
193.14	104.13
193.519	106.85
193.898	106.04
194.278	106.88
194.657	108.12
195.037	110.59
195.416	112.86
195.795	117.39
196.175	117.86
196.554	118.19
196.933	117.77
197.312	114.58
197.692	112.39
198.071	111.44
198.45	111.43
198.829	110.38
199.208	110.32
199.587	109.46
199.966	109.7
200.345	109.62
200.724	109.25
201.103	108.87
201.482	107.5
201.86	107.75
202.239	105.77
202.618	104.74
202.997	104.05
203.375	103.22
203.754	102.34
204.133	102.59
204.511	104.18
204.89	104.31
205.269	105.41
205.647	105.76
206.026	104.85
206.404	105.14
206.782	104.44
207.161	104.41
207.539	105.8
207.918	105.22
208.296	104.53
208.674	104.13
209.052	106.73
209.431	108.2
209.809	108.56
210.187	108.68
210.565	107.27
210.943	108.03
211.321	109.28
211.699	110.73
212.077	111.39
212.455	111.52
212.833	112.43
213.211	111.46
213.589	110.97
213.967	111.67
214.345	111.61
214.722	113.78
215.1	114.45
215.478	112.82
215.855	112.57
216.233	112.47
216.611	113.78
216.988	111.88
217.366	110.26
217.743	109.4
218.121	111.41
218.498	113.42
218.876	113.32
219.253	113.68
219.631	113.15
220.008	111.81
220.385	110.47
220.762	109.9
221.14	110.97
221.517	111.71
221.894	110.66
222.271	111.15
222.648	110.72
223.025	111.73
223.402	113.13
223.78	113.04
224.157	111.79
224.533	111.97
224.91	112.83
225.287	114.09
225.664	114.83
226.041	114.28
226.418	114.06
226.795	113.64
227.171	112.97
227.548	112.09
227.925	113.69
228.301	115.32
228.678	116.38
229.055	115.66
229.431	115.49
229.808	115.55
230.184	113.65
230.561	112.68
230.937	112.1
231.313	111.54
231.69	112.16
232.066	114.14
232.442	113.69
232.819	113.73
233.195	114.48
233.571	114.82
233.947	115.61
234.323	116.41
234.699	115.95
235.075	116.17
235.451	118.22
235.827	118.9
236.203	118.92
236.579	118.88
236.955	120.9
237.331	123.05
237.707	126.12
238.083	130.91
238.459	136.07
238.834	142.91
239.21	149.78
239.586	155.48
239.961	161.01
240.337	165.06
240.713	167.85
241.088	167.63
241.464	169.4
241.839	174.35
242.215	181.19
242.59	196.05
242.965	226.38
243.341	283.01
243.716	376.05
244.091	568.2
244.467	883.03
244.842	1474.08
245.217	3385.36
245.592	8468.75
245.967	-67150
246.343	-46195
246.718	6510.56
247.093	8163.39
247.468	91010
247.843	-10659.3
248.218	-2241.71
248.593	-1142.56
248.967	-722.95
249.342	-586.54
249.717	-564.22
250.092	-558.17
250.467	-604.26
250.841	-862.34
251.216	-3484.59
251.591	2125.92
251.965	813.75
252.34	584.31
252.714	517.62
253.089	461.74
253.463	450.66
253.838	469.44
254.212	495.24
254.587	574.47
254.961	778.19
255.335	1615.22
255.71	-2458.81
256.084	-542.72
256.458	-290.56
256.832	-209.66
257.206	-176.22
257.581	-161.28
257.955	-151.6
258.329	-142.59
258.703	-133.72
259.077	-126.23
259.451	-122.18
259.825	-116.04
260.199	-112.62
260.572	-109.66
260.946	-105.17
261.32	-102.58
261.694	-100.24
262.068	-99.28
262.441	-96.62
262.815	-96.02
263.189	-97.65
263.562	-104.15
263.936	-118.87
264.309	-142.71
264.683	-168.82
265.056	-187.07
265.43	-192.79
265.803	-188.09
266.176	-182.64
266.55	-178.99
266.923	-174.91
267.296	-165.15
267.67	-153.16
268.043	-139.64
268.416	-128.96
268.789	-116.31
269.162	-103.11
269.535	-95.37
269.908	-88.5
270.281	-86.46
270.654	-86.64
271.027	-88.32
271.4	-89.36
271.773	-90.02
272.146	-89.9
272.519	-87.92
272.891	-86.01
273.264	-84.34
273.637	-82.98
274.01	-83.26
274.382	-81.65
274.755	-79.55
275.127	-78.52
275.5	-79.53
275.872	-79.79
276.245	-80.29
276.617	-82.71
276.99	-88.27
277.362	-90.62
277.734	-91.73
278.107	-89.39
278.479	-85.14
278.851	-80.47
279.223	-77.05
279.596	-74.86
279.968	-73.49
280.34	-73.25
280.712	-71.1
281.084	-67.97
281.456	-63.16
281.828	-57.79
282.2	-53.72
282.572	-50.53
282.944	-48.47
283.315	-47.2
283.687	-46.62
284.059	-46.22
284.431	-45.53
284.802	-43.9
285.174	-42.52
285.546	-41.59
285.917	-41.53
286.289	-40.76
286.66	-39.81
287.032	-39.63
287.403	-38.85
287.775	-37.88
288.146	-37.11
288.518	-37.18
288.889	-37.05
289.26	-38.19
289.632	-39.65
290.003	-41.64
290.374	-43.43
290.745	-44.46
291.116	-44.34
291.487	-43.13
291.858	-42.36
292.229	-41.6
292.6	-40.74
292.971	-39.97
293.342	-38.05
293.713	-35.76
294.084	-34.85
294.455	-34.49
294.826	-33.94
295.196	-33.89
295.567	-33.95
295.938	-33.74
296.308	-33.36
296.679	-32.81
297.05	-31.79
297.42	-31.11
297.791	-29.68
298.161	-28.13
298.532	-27.26
298.902	-26.71
299.272	-26.35
299.643	-25.81
300.013	-25.64
300.383	-25.37
300.754	-24.91
301.124	-25.21
301.494	-25.68
301.864	-25.38
302.234	-25.23
302.604	-24.95
302.974	-24.59
303.344	-24.06
303.714	-23.96
304.084	-23.26
304.454	-22.61
304.824	-21.75
305.194	-20.84
305.563	-20.37
305.933	-19.46
306.303	-18.26
306.673	-17.82
307.042	-17.04
307.412	-16.29
307.781	-15.2
308.151	-14.28
308.521	-13.87
308.89	-13.52
309.259	-12.89
309.629	-12.62
309.998	-12.4
310.368	-12.11
310.737	-11.83
311.106	-11.82
311.475	-11.1
311.845	-10.65
312.214	-10.45
312.583	-10.21
312.952	-10.15
313.321	-10.04
313.69	-10.39
314.059	-10.78
314.428	-10.49
314.797	-11.05
315.166	-11.8
315.535	-12.36
315.904	-12.89
316.272	-13.21
316.641	-13.41
317.01	-13.81
317.379	-13.96
317.747	-13.89
318.116	-13.55
318.484	-13.23
318.853	-12.77
319.221	-12.68
319.59	-12.49
319.958	-12.19
320.327	-12.13
320.695	-11.95
321.063	-11.73
321.432	-11.43
321.8	-11.34
322.168	-10.86
322.536	-10.19
322.905	-9.01
323.273	-8.47
323.641	-8.05
324.009	-7.96
324.377	-7.58
324.745	-7.06
325.113	-6.93
325.481	-6.34
325.849	-5.85
326.216	-5.44
326.584	-5.11
326.952	-4.96
327.32	-4.79
327.687	-4.63
328.055	-4.53
328.423	-4.47
328.79	-4.29
329.158	-4.16
329.525	-3.55
329.893	-3.32
330.26	-2.89
330.628	-2.83
330.995	-2.45
331.362	-2.07
331.73	-1.56
332.097	-1.2
332.464	-0.93
332.831	-0.52
333.199	-0.42
333.566	-0.2
333.933	-0.11
334.3	0
334.667	0.26
335.034	0.42
335.401	0.55
335.768	0.67
336.135	0.96
336.502	1.27
336.868	1.54
337.235	1.66
337.602	1.86
337.969	2.08
338.335	2.27
338.702	2.48
339.069	2.58
339.435	2.84
339.802	2.94
340.168	3.25
340.535	3.4
340.901	3.51
341.267	3.6
341.634	3.91
342	4.08
342.366	4.21
342.733	4.32
343.099	4.52
343.465	4.7
343.831	4.9
344.197	4.99
344.563	5.13
344.929	5.26
345.295	5.53
345.661	5.62
346.027	5.78
346.393	5.84
346.759	5.89
347.125	5.96
347.491	6.07
347.856	6.01
348.222	6.1
348.588	6.25
348.953	6.3
349.319	6.31
349.684	6.41
350.05	6.62
350.415	6.87
350.781	7.09
351.146	7.33
351.512	7.47
351.877	7.67
352.242	7.84
352.608	8.03
352.973	8.01
353.338	8.11
353.703	8.21
354.068	8.36
354.433	8.52
354.798	8.65
355.164	8.77
355.528	8.79
355.893	9
356.258	9.23
356.623	9.36
356.988	9.45
357.353	9.63
357.718	9.74
358.082	9.82
358.447	9.85
358.812	9.93
359.176	10.04
359.541	10.14
359.905	10.25
360.27	10.27
360.634	10.35
360.999	10.3
361.363	10.34
361.728	10.39
362.092	10.51
362.456	10.61
362.821	10.71
363.185	10.82
363.549	10.9
363.913	10.9
364.277	10.98
364.641	11.06
365.005	11.08
365.369	11.07
365.733	11.14
366.097	11.34
366.461	11.37
366.825	11.39
367.189	11.39
367.553	11.54
367.916	11.7
368.28	11.86
368.644	12.14
369.007	12.28
369.371	12.32
369.734	12.37
370.098	12.41
370.461	12.45
370.825	12.61
371.188	12.75
371.552	12.82
371.915	12.94
372.278	13.07
372.642	13.16
373.005	13.28
373.368	13.3
373.731	13.34
374.094	13.4
374.457	13.5
374.82	13.65
375.183	13.65
375.546	13.72
375.909	13.75
376.272	13.76
376.635	13.81
376.998	13.89
377.361	13.94
377.723	14.01
378.086	14.17
378.449	14.25
378.811	14.32
379.174	14.41
379.537	14.51
379.899	14.62
380.262	14.76
380.624	14.82
380.987	14.93
381.349	14.92
381.711	14.99
382.074	15.08
382.436	15.11
382.798	15.1
383.16	15.08
383.522	15.13
383.884	15.18
384.247	15.23
384.609	15.29
384.971	15.4
385.333	15.42
385.695	15.43
386.056	15.43
386.418	15.38
386.78	15.41
387.142	15.34
387.504	15.34
387.865	15.31
388.227	15.32
388.589	15.35
388.95	15.38
389.312	15.35
389.673	15.32
390.035	15.28
390.396	15.32
390.758	15.3
391.119	15.25
391.48	15.24
391.842	15.24
392.203	15.27
392.564	15.26
392.925	15.27
393.286	15.23
393.648	15.25
394.009	15.25
394.37	15.24
394.731	15.26
395.092	15.22
395.452	15.24
395.813	15.27
396.174	15.24
396.535	15.23
396.896	15.27
397.257	15.28
397.617	15.31
397.978	15.31
398.338	15.39
398.699	15.43
399.06	15.4
399.42	15.34
399.781	15.29
400.141	15.21
400.501	15.16
400.862	15.16
401.222	15.11
401.582	15.08
401.943	15.05
402.303	15.07
402.663	15.06
403.023	14.98
403.383	14.91
403.743	14.89
404.103	14.87
404.463	14.91
404.823	14.86
405.183	14.87
405.543	14.85
405.903	14.78
406.262	14.72
406.622	14.72
406.982	14.73
407.342	14.74
407.701	14.77
408.061	14.73
408.42	14.69
408.78	14.67
409.139	14.64
409.499	14.61
409.858	14.56
410.217	14.54
410.577	14.54
410.936	14.52
411.295	14.49
411.655	14.46
412.014	14.38
412.373	14.34
412.732	14.26
413.091	14.2
413.45	14.17
413.809	14.12
414.168	14.06
414.527	13.95
414.886	13.82
415.245	13.72
415.603	13.65
415.962	13.56
416.321	13.47
416.679	13.39
417.038	13.3
417.397	13.19
417.755	13.08
418.114	13.01
418.472	12.94
418.831	12.89
419.189	12.82
419.547	12.75
419.906	12.69
420.264	12.6
420.622	12.54
420.981	12.45
421.339	12.38
421.697	12.33
422.055	12.28
422.413	12.26
422.771	12.2
423.129	12.18
423.487	12.17
423.845	12.14
424.203	12.11
424.56	12.09
424.918	12.08
425.276	12.09
425.634	12.07
425.991	12.06
426.349	12.03
426.707	12.02
427.064	12.01
427.422	12
427.779	11.99
428.137	12
428.494	12.01
428.851	12.03
429.209	11.98
429.566	11.93
429.923	11.87
430.28	11.86
430.637	11.8
430.995	11.73
431.352	11.71
431.709	11.68
432.066	11.68
432.423	11.64
432.78	11.61
433.137	11.57
433.493	11.53
433.85	11.51
434.207	11.45
434.564	11.4
434.92	11.35
435.277	11.29
435.634	11.23
435.99	11.18
436.347	11.1
436.703	11.05
437.06	11.02
437.416	10.99
437.773	10.95
438.129	10.91
438.485	10.91
438.841	10.88
439.198	10.86
439.554	10.82
439.91	10.8
440.266	10.76
440.622	10.74
440.978	10.7
441.334	10.65
441.69	10.61
442.046	10.55
442.402	10.52
442.758	10.45
443.113	10.41
443.469	10.36
443.825	10.35
444.181	10.35
444.536	10.32
444.892	10.31
445.247	10.29
445.603	10.29
445.958	10.26
446.314	10.23
446.669	10.21
447.025	10.19
447.38	10.18
447.735	10.16
448.09	10.13
448.446	10.13
448.801	10.12
449.156	10.13
449.511	10.12
449.866	10.13
450.221	10.16
450.576	10.17
450.931	10.17
451.286	10.14
451.641	10.11
451.995	10.1
452.35	10.07
452.705	10.05
453.06	10.04
453.414	10.05
453.769	10.04
454.123	10.02
454.478	9.97
454.832	9.94
455.187	9.9
455.541	9.86
455.896	9.79
456.25	9.72
456.604	9.66
456.958	9.61
457.313	9.57
457.667	9.53
458.021	9.52
458.375	9.53
458.729	9.55
459.083	9.55
459.437	9.54
459.791	9.53
460.145	9.53
460.499	9.52
460.852	9.5
461.206	9.5
461.56	9.49
461.914	9.51
462.267	9.49
462.621	9.49
462.974	9.49
463.328	9.52
463.681	9.56
464.035	9.6
464.388	9.63
464.742	9.65
465.095	9.68
465.448	9.67
465.801	9.66
466.155	9.64
466.508	9.65
466.861	9.65
467.214	9.65
467.567	9.65
467.92	9.64
468.273	9.64
468.626	9.64
468.979	9.63
469.332	9.61
469.684	9.6
470.037	9.62
470.39	9.61
470.743	9.61
471.095	9.61
471.448	9.62
471.8	9.63
472.153	9.63
472.505	9.62
472.858	9.61
473.21	9.59
473.562	9.56
473.915	9.54
474.267	9.52
474.619	9.51
474.971	9.48
475.324	9.45
475.676	9.45
476.028	9.43
476.38	9.41
476.732	9.41
477.084	9.4
477.436	9.36
477.787	9.35
478.139	9.34
478.491	9.29
478.843	9.25
479.195	9.21
479.546	9.14
479.898	9.05
480.249	8.97
480.601	8.91
480.952	8.87
481.304	8.84
481.655	8.82
482.007	8.8
482.358	8.8
482.709	8.79
483.061	8.78
483.412	8.77
483.763	8.75
484.114	8.73
484.465	8.71
484.816	8.7
485.167	8.69
485.518	8.68
485.869	8.67
486.22	8.68
486.571	8.68
486.922	8.69
487.272	8.71
487.623	8.74
487.974	8.75
488.324	8.77
488.675	8.78
489.025	8.78
489.376	8.78
489.726	8.79
490.077	8.81
490.427	8.83
490.778	8.84
491.128	8.88
491.478	8.92
491.828	8.95
492.179	8.99
492.529	9.03
492.879	9.06
493.229	9.11
493.579	9.12
493.929	9.12
494.279	9.15
494.629	9.18
494.979	9.22
495.328	9.26
495.678	9.33
496.028	9.39
496.378	9.44
496.727	9.49
497.077	9.53
497.426	9.56
497.776	9.56
498.125	9.56
498.475	9.58
498.824	9.6
499.174	9.62
499.523	9.63
499.872	9.63
500.221	9.64
500.571	9.65
500.92	9.66
501.269	9.69
501.618	9.7
501.967	9.7
502.316	9.7
502.665	9.73
503.014	9.73
503.363	9.73
503.711	9.73
504.06	9.72
504.409	9.71
504.758	9.7
505.106	9.71
505.455	9.72
505.803	9.71
506.152	9.7
506.5	9.72
506.849	9.73
507.197	9.74
507.546	9.76
507.894	9.76
508.242	9.79
508.59	9.8
508.939	9.8
509.287	9.81
509.635	9.83
509.983	9.84
510.331	9.86
510.679	9.88
511.027	9.89
511.375	9.91
511.723	9.94
512.07	9.96
512.418	9.99
512.766	10.03
513.114	10.08
513.461	10.11
513.809	10.13
514.156	10.15
514.504	10.18
514.851	10.2
515.199	10.21
515.546	10.22
515.893	10.24
516.241	10.27
516.588	10.29
516.935	10.31
517.282	10.33
517.63	10.35
517.977	10.35
518.324	10.39
518.671	10.42
519.018	10.45
519.365	10.47
519.711	10.49
520.058	10.49
520.405	10.49
520.752	10.49
521.099	10.53
521.445	10.54
521.792	10.57
522.138	10.59
522.485	10.62
522.832	10.64
523.178	10.69
523.524	10.72
523.871	10.73
524.217	10.75
524.563	10.73
524.91	10.74
525.256	10.74
525.602	10.74
525.948	10.72
526.294	10.71
526.64	10.71
526.986	10.71
527.332	10.72
527.678	10.74
528.024	10.77
528.37	10.79
528.716	10.81
529.061	10.82
529.407	10.83
529.753	10.84
530.098	10.86
530.444	10.86
530.789	10.87
531.135	10.88
531.48	10.91
531.826	10.96
532.171	11
532.516	11.05
532.862	11.1
533.207	11.17
533.552	11.23
533.897	11.28
534.242	11.33
534.587	11.37
534.932	11.4
535.277	11.41
535.622	11.43
535.967	11.47
536.312	11.51
536.657	11.57
537.001	11.64
537.346	11.71
537.691	11.76
538.035	11.81
538.38	11.86
538.724	11.88
539.069	11.92
539.413	11.94
539.758	11.96
540.102	12
540.446	12.04
540.791	12.08
541.135	12.13
541.479	12.16
541.823	12.21
542.167	12.24
542.512	12.27
542.856	12.29
543.2	12.31
543.543	12.34
543.887	12.37
544.231	12.4
544.575	12.44
544.919	12.5
545.262	12.59
545.606	12.67
545.95	12.74
546.293	12.8
546.637	12.88
546.98	12.98
547.324	13.05
547.667	13.13
548.011	13.19
548.354	13.24
548.697	13.29
549.04	13.36
549.384	13.43
549.727	13.53
550.07	13.64
550.413	13.72
550.756	13.82
551.099	13.92
551.442	14.01
551.785	14.12
552.128	14.21
552.47	14.27
552.813	14.33
553.156	14.41
553.499	14.5
553.841	14.58
554.184	14.66
554.526	14.74
554.869	14.81
555.211	14.89
555.554	14.97
555.896	15.08
556.238	15.17
556.581	15.28
556.923	15.36
557.265	15.45
557.607	15.56
557.949	15.68
558.291	15.8
558.633	15.91
558.975	16.01
559.317	16.12
559.659	16.24
560.001	16.4
560.343	16.53
560.685	16.64
561.026	16.74
561.368	16.84
561.71	16.97
562.051	17.09
562.393	17.25
562.734	17.4
563.076	17.54
563.417	17.67
563.759	17.79
564.1	17.95
564.441	18.07
564.782	18.22
565.124	18.37
565.465	18.5
565.806	18.63
566.147	18.77
566.488	18.91
566.829	19.05
567.17	19.16
567.511	19.28
567.851	19.44
568.192	19.6
568.533	19.78
568.874	19.97
569.214	20.16
569.555	20.31
569.895	20.5
570.236	20.69
570.576	20.86
570.917	21.05
571.257	21.2
571.598	21.39
571.938	21.56
572.278	21.74
572.618	21.92
572.959	22.1
573.299	22.27
573.639	22.46
573.979	22.64
574.319	22.81
574.659	22.98
574.999	23.18
575.339	23.36
575.678	23.55
576.018	23.71
576.358	23.9
576.698	24.09
577.037	24.26
577.377	24.46
577.716	24.68
578.056	24.9
578.395	25.12
578.735	25.29
579.074	25.46
579.413	25.63
579.753	25.82
580.092	26.02
580.431	26.23
580.77	26.37
581.109	26.53
581.448	26.73
581.787	26.95
582.126	27.11
582.465	27.27
582.804	27.41
583.143	27.59
583.482	27.73
583.82	27.9
584.159	28.09
584.498	28.24
584.836	28.43
585.175	28.57
585.514	28.75
585.852	28.97
586.19	29.2
586.529	29.39
586.867	29.57
587.205	29.76
587.544	29.92
587.882	30.12
588.22	30.32
588.558	30.5
588.896	30.64
589.234	30.79
589.572	30.94
589.91	31.11
590.248	31.25
590.586	31.42
590.924	31.59
591.262	31.71
591.599	31.89
591.937	32.01
592.275	32.18
592.612	32.28
592.95	32.41
593.287	32.58
593.625	32.74
593.962	32.92
594.299	33.07
594.637	33.23
594.974	33.34
595.311	33.43
595.648	33.55
595.985	33.66
596.322	33.75
596.659	33.87
596.996	33.98
597.333	34.09
597.67	34.18
598.007	34.28
598.344	34.34
598.681	34.42
599.017	34.47
599.354	34.56
599.691	34.69
600.027	34.8
600.364	34.91
600.7	35.03
601.037	35.11
601.373	35.19
601.71	35.29
602.046	35.4
602.382	35.52
602.718	35.63
603.054	35.66
603.391	35.77
603.727	35.83
604.063	35.92
604.399	35.95
604.735	36.03
605.071	36.09
605.406	36.18
605.742	36.22
606.078	36.32
606.414	36.37
606.749	36.45
607.085	36.5
607.421	36.55
607.756	36.6
608.092	36.67
608.427	36.71
608.762	36.74
609.098	36.74
609.433	36.76
609.768	36.73
610.104	36.82
610.439	36.85
610.774	36.86
611.109	36.87
611.444	36.92
611.779	36.92
612.114	36.93
612.449	36.96
612.784	36.99
613.118	37
613.453	37
613.788	37
614.123	37.01
614.457	37.04
614.792	37.03
615.126	37.02
615.461	37.05
615.795	37.07
616.13	37.19
616.464	37.23
616.798	37.26
617.132	37.3
617.467	37.33
617.801	37.36
618.135	37.41
618.469	37.38
618.803	37.39
619.137	37.43
619.471	37.46
619.805	37.45
620.139	37.45
620.472	37.53
620.806	37.56
621.14	37.57
621.473	37.62
621.807	37.65
622.141	37.64
622.474	37.68
622.808	37.69
623.141	37.71
623.474	37.71
623.808	37.76
624.141	37.74
624.474	37.74
624.807	37.78
625.141	37.77
625.474	37.84
625.807	37.88
626.14	37.9
626.473	37.94
626.806	38.04
627.138	38.11
627.471	38.11
627.804	38.12
628.137	38.17
628.469	38.18
628.802	38.14
629.135	38.18
629.467	38.21
629.8	38.18
630.132	38.16
630.465	38.17
630.797	38.19
631.129	38.21
631.461	38.22
631.794	38.27
632.126	38.26
632.458	38.26
632.79	38.28
633.122	38.27
633.454	38.29
633.786	38.2
634.118	38.21
634.45	38.21
634.781	38.25
635.113	38.22
635.445	38.23
635.777	38.3
636.108	38.34
636.44	38.38
636.771	38.41
637.103	38.43
637.434	38.38
637.765	38.36
638.097	38.38
638.428	38.37
638.759	38.29
639.09	38.31
639.422	38.29
639.753	38.31
640.084	38.34
640.415	38.34
640.746	38.36
641.077	38.29
641.407	38.25
641.738	38.14
642.069	38.19
642.4	38.13
642.73	38.13
643.061	38.07
643.392	38.07
643.722	38.1
644.053	38.07
644.383	38.13
644.713	38.17
645.044	38.1
645.374	38.1
645.704	38.18
646.034	38.24
646.365	38.3
646.695	38.26
647.025	38.24
