Data from pcis_c_h2_p4_Reflection_2.txt Node
Date: Wed Jul 12 17:41:45 ART 2017
User: rodoncho
Spectrometer: USB2E3644
Trigger mode: 4
Integration Time (sec): 6.000000E-2
Scans to average: 10
Electric dark correction enabled: true
Nonlinearity correction enabled: false
Boxcar width: 10
XAxis mode: Wavelengths
Number of Pixels in Spectrum: 2048
>>>>>Begin Spectral Data<<<<<
178.315	-18.48
178.696	96.87
179.076	156.93
179.457	230.93
179.838	334.21
180.218	193.18
180.599	-737.5
180.979	-1800
181.36	6.89
181.74	8.14
182.121	102.5
182.501	110.2
182.881	132.23
183.262	144.09
183.642	403.57
184.022	55.11
184.402	80.22
184.783	91.59
185.163	87.91
185.543	98.99
185.923	118.22
186.303	125.76
186.683	130.09
187.063	129.56
187.443	127.14
187.823	129.59
188.203	128.4
188.583	129.52
188.963	134.11
189.343	125.33
189.723	126.89
190.102	129.11
190.482	131.87
190.862	132.18
191.242	130.86
191.621	136.81
192.001	137.14
192.38	135.92
192.76	126.25
193.14	119.6
193.519	111.89
193.898	107.53
194.278	106.09
194.657	106.32
195.037	108.07
195.416	110.57
195.795	113.27
196.175	114.45
196.554	114.49
196.933	113.51
197.312	115.82
197.692	114.84
198.071	114.81
198.45	112.92
198.829	113.37
199.208	115.82
199.587	114.46
199.966	114.1
200.345	114.26
200.724	116.79
201.103	119.84
201.482	122.1
201.86	124.04
202.239	125.67
202.618	127.17
202.997	127.28
203.375	126.25
203.754	124.47
204.133	122.8
204.511	122.38
204.89	120.72
205.269	117.87
205.647	116.97
206.026	118.78
206.404	118.99
206.782	118.71
207.161	116.44
207.539	114.12
207.918	114.57
208.296	113.88
208.674	113.87
209.052	112.62
209.431	111.55
209.809	110.94
210.187	109.61
210.565	108.69
210.943	109.85
211.321	109.3
211.699	109.11
212.077	108.79
212.455	107.78
212.833	107.31
213.211	107.6
213.589	107.1
213.967	106.42
214.345	107.07
214.722	107.07
215.1	108.26
215.478	110.7
215.855	110.38
216.233	109.21
216.611	108
216.988	106.92
217.366	108.01
217.743	107.72
218.121	106.89
218.498	106.87
218.876	105.1
219.253	106.06
219.631	105.56
220.008	106.27
220.385	105.73
220.762	107.29
221.14	106.48
221.517	106.78
221.894	106.48
222.271	107.14
222.648	110.31
223.025	110.81
223.402	111.01
223.78	111.72
224.157	112.88
224.533	114.71
224.91	117.48
225.287	117.7
225.664	118.89
226.041	121.08
226.418	120.63
226.795	120.18
227.171	119.48
227.548	118.65
227.925	118.43
228.301	119.54
228.678	118.46
229.055	120.78
229.431	120.79
229.808	120.29
230.184	119.4
230.561	116.46
230.937	115.99
231.313	116.29
231.69	115.83
232.066	115.73
232.442	114.29
232.819	113.71
233.195	113.21
233.571	112.83
233.947	111.91
234.323	112.55
234.699	113.09
235.075	112.89
235.451	114.49
235.827	115.53
236.203	117.12
236.579	118.87
236.955	119.19
237.331	121.33
237.707	124.89
238.083	129.35
238.459	135.21
238.834	142.21
239.21	148.15
239.586	154.89
239.961	159.67
240.337	165.44
240.713	170.78
241.088	177.26
241.464	180.26
241.839	187.09
242.215	196.92
242.59	219.64
242.965	267.87
243.341	365.7
243.716	576.43
244.091	1223.21
244.467	9588.04
244.842	-1675.58
245.217	-877.63
245.592	-716.53
245.967	-667.31
246.343	-669.2
246.718	-754.09
247.093	-772.23
247.468	-761.93
247.843	-645.22
248.218	-535.39
248.593	-435.01
248.967	-365.79
249.342	-326.07
249.717	-326.41
250.092	-330.16
250.467	-358.86
250.841	-458.65
251.216	-831.7
251.591	-3883.64
251.965	1594.08
252.34	853.25
252.714	620.84
253.089	495.96
253.463	471.34
253.838	511.36
254.212	564.03
254.587	666.18
254.961	923.28
255.335	2641.41
255.71	-1686.81
256.084	-432.19
256.458	-243.66
256.832	-176.42
257.206	-149.36
257.581	-134.46
257.955	-128.14
258.329	-121.52
258.703	-113.76
259.077	-107.2
259.451	-102.69
259.825	-97.95
260.199	-94.2
260.572	-91.85
260.946	-88.99
261.32	-89.4
261.694	-87.22
262.068	-84.81
262.441	-83.94
262.815	-84.18
263.189	-84.97
263.562	-89.48
263.936	-102.5
264.309	-121.93
264.683	-144.72
265.056	-159.15
265.43	-161.89
265.803	-157.2
266.176	-152.76
266.55	-156.89
266.923	-155.33
267.296	-149.87
267.67	-143.4
268.043	-133.39
268.416	-121.97
268.789	-111
269.162	-97.4
269.535	-89.8
269.908	-86.11
270.281	-83.84
270.654	-83.22
271.027	-85.23
271.4	-86.58
271.773	-87.51
272.146	-86.3
272.519	-82.2
272.891	-79.49
273.264	-79.88
273.637	-79.75
274.01	-80.5
274.382	-78.08
274.755	-75.84
275.127	-75.27
275.5	-75.73
275.872	-75.59
276.245	-76.09
276.617	-78.71
276.99	-83.5
277.362	-87.76
277.734	-89.48
278.107	-87.91
278.479	-84.65
278.851	-80.12
279.223	-76.14
279.596	-73.23
279.968	-72.08
280.34	-72.78
280.712	-71.29
281.084	-67.64
281.456	-62.09
281.828	-57.16
282.2	-53.17
282.572	-50.41
282.944	-48.82
283.315	-47.41
283.687	-46.83
284.059	-46.79
284.431	-45.19
284.802	-44.17
285.174	-41.72
285.546	-39.83
285.917	-39.59
286.289	-38.94
286.66	-38.4
287.032	-38.56
287.403	-38.42
287.775	-37.27
288.146	-36.37
288.518	-35.92
288.889	-36.12
289.26	-37.34
289.632	-38.22
290.003	-39.64
290.374	-41.23
290.745	-41.05
291.116	-40.42
291.487	-39.58
291.858	-38.15
292.229	-37.8
292.6	-36.52
292.971	-36.08
293.342	-34.76
293.713	-32.45
294.084	-30.94
294.455	-30.1
294.826	-29.41
295.196	-28.91
295.567	-29.3
295.938	-29
296.308	-28.77
296.679	-27.9
297.05	-27.19
297.42	-26.81
297.791	-26.03
298.161	-24.77
298.532	-24.38
298.902	-24.23
299.272	-23.98
299.643	-23.69
300.013	-23.58
300.383	-23.35
300.754	-23.28
301.124	-23.72
301.494	-24.01
301.864	-24.39
302.234	-24.54
302.604	-24.35
302.974	-24.07
303.344	-23.53
303.714	-23.54
304.084	-23.26
304.454	-23.11
304.824	-22.7
305.194	-22.12
305.563	-21.56
305.933	-21.04
306.303	-20.01
306.673	-19.32
307.042	-18.74
307.412	-17.89
307.781	-16.39
308.151	-15.68
308.521	-15.31
308.89	-14.79
309.259	-14.38
309.629	-13.97
309.998	-13.81
310.368	-13.79
310.737	-13.68
311.106	-13.68
311.475	-13
311.845	-12.6
312.214	-12.36
312.583	-12.23
312.952	-11.87
313.321	-11.54
313.69	-11.38
314.059	-11.73
314.428	-11.96
314.797	-12.25
315.166	-12.91
315.535	-13.6
315.904	-13.78
316.272	-13.8
316.641	-14.15
317.01	-14.72
317.379	-14.8
317.747	-14.48
318.116	-14.01
318.484	-13.72
318.853	-13.14
319.221	-13.19
319.59	-13.16
319.958	-12.98
320.327	-12.62
320.695	-12.56
321.063	-12.54
321.432	-12.3
321.8	-11.79
322.168	-10.97
322.536	-10.13
322.905	-9.15
323.273	-8.6
323.641	-8.34
324.009	-8.41
324.377	-7.99
324.745	-7.49
325.113	-7.25
325.481	-6.98
325.849	-6.53
326.216	-5.96
326.584	-5.57
326.952	-5.27
327.32	-4.97
327.687	-4.6
328.055	-4.17
328.423	-3.82
328.79	-3.4
329.158	-3.34
329.525	-3.02
329.893	-2.82
330.26	-2.74
330.628	-2.73
330.995	-2.62
331.362	-2.27
331.73	-1.72
332.097	-1.58
332.464	-1.43
332.831	-1.03
333.199	-0.71
333.566	-0.68
333.933	-0.73
334.3	-0.84
334.667	-0.75
335.034	-0.54
335.401	-0.41
335.768	-0.45
336.135	-0.39
336.502	-0.45
336.868	-0.22
337.235	-0.09
337.602	0.03
337.969	0.23
338.335	0.49
338.702	0.88
339.069	1.08
339.435	1.19
339.802	1.43
340.168	1.62
340.535	1.66
340.901	1.62
341.267	1.89
341.634	2.28
342	2.57
342.366	2.73
342.733	2.88
343.099	3.02
343.465	3.37
343.831	3.58
344.197	3.77
344.563	3.92
344.929	4.02
345.295	4.26
345.661	4.45
346.027	4.52
346.393	4.48
346.759	4.46
347.125	4.67
347.491	4.84
347.856	5.02
348.222	5.13
348.588	5.39
348.953	5.37
349.319	5.31
349.684	5.38
350.05	5.63
350.415	5.84
350.781	6.03
351.146	6.03
351.512	6.12
351.877	6.32
352.242	6.43
352.608	6.53
352.973	6.55
353.338	6.6
353.703	6.74
354.068	6.88
354.433	6.99
354.798	7.16
355.164	7.27
355.528	7.32
355.893	7.49
356.258	7.6
356.623	7.73
356.988	7.92
357.353	8.13
357.718	8.22
358.082	8.27
358.447	8.22
358.812	8.29
359.176	8.4
359.541	8.4
359.905	8.54
360.27	8.69
360.634	8.83
360.999	8.96
361.363	9.08
361.728	9.16
362.092	9.28
362.456	9.24
362.821	9.28
363.185	9.42
363.549	9.47
363.913	9.5
364.277	9.61
364.641	9.67
365.005	9.75
365.369	9.76
365.733	9.83
366.097	10.04
366.461	10.11
366.825	10.15
367.189	10.34
367.553	10.44
367.916	10.54
368.28	10.57
368.644	10.68
369.007	10.8
369.371	10.9
369.734	10.98
370.098	11.1
370.461	11.23
370.825	11.32
371.188	11.47
371.552	11.58
371.915	11.7
372.278	11.8
372.642	11.92
373.005	12.09
373.368	12.2
373.731	12.27
374.094	12.38
374.457	12.44
374.82	12.45
375.183	12.48
375.546	12.53
375.909	12.63
376.272	12.7
376.635	12.7
376.998	12.73
377.361	12.82
377.723	12.9
378.086	12.96
378.449	13.02
378.811	13.1
379.174	13.22
379.537	13.23
379.899	13.34
380.262	13.42
380.624	13.45
380.987	13.51
381.349	13.6
381.711	13.64
382.074	13.72
382.436	13.8
382.798	13.85
383.16	13.85
383.522	13.92
383.884	13.98
384.247	14.11
384.609	14.22
384.971	14.25
385.333	14.29
385.695	14.33
386.056	14.34
386.418	14.35
386.78	14.38
387.142	14.38
387.504	14.39
387.865	14.33
388.227	14.34
388.589	14.36
388.95	14.33
389.312	14.32
389.673	14.35
390.035	14.39
390.396	14.38
390.758	14.4
391.119	14.37
391.48	14.37
391.842	14.32
392.203	14.29
392.564	14.29
392.925	14.3
393.286	14.28
393.648	14.3
394.009	14.29
394.37	14.25
394.731	14.27
395.092	14.24
395.452	14.31
395.813	14.33
396.174	14.34
396.535	14.36
396.896	14.4
397.257	14.42
397.617	14.44
397.978	14.5
398.338	14.54
398.699	14.61
399.06	14.63
399.42	14.63
399.781	14.68
400.141	14.68
400.501	14.67
400.862	14.72
401.222	14.73
401.582	14.77
401.943	14.77
402.303	14.84
402.663	14.9
403.023	14.87
403.383	14.86
403.743	14.88
404.103	14.94
404.463	14.98
404.823	15.03
405.183	15.05
405.543	15.05
405.903	15.1
406.262	15.08
406.622	15.06
406.982	15.12
407.342	15.13
407.701	15.16
408.061	15.19
408.42	15.18
408.78	15.18
409.139	15.2
409.499	15.22
409.858	15.22
410.217	15.24
410.577	15.25
410.936	15.26
411.295	15.28
411.655	15.22
412.014	15.18
412.373	15.1
412.732	15.07
413.091	15.05
413.45	15.02
413.809	14.98
414.168	14.96
414.527	14.91
414.886	14.85
415.245	14.76
415.603	14.72
415.962	14.64
416.321	14.6
416.679	14.53
417.038	14.45
417.397	14.35
417.755	14.25
418.114	14.19
418.472	14.12
418.831	14.07
419.189	14.04
419.547	14.01
419.906	13.95
420.264	13.88
420.622	13.84
420.981	13.77
421.339	13.75
421.697	13.71
422.055	13.66
422.413	13.64
422.771	13.64
423.129	13.61
423.487	13.61
423.845	13.6
424.203	13.59
424.56	13.6
424.918	13.63
425.276	13.67
425.634	13.7
425.991	13.75
426.349	13.76
426.707	13.78
427.064	13.79
427.422	13.85
427.779	13.91
428.137	13.92
428.494	13.99
428.851	14.02
429.209	14.08
429.566	14.13
429.923	14.16
430.28	14.17
430.637	14.21
430.995	14.23
431.352	14.24
431.709	14.27
432.066	14.31
432.423	14.33
432.78	14.36
433.137	14.38
433.493	14.39
433.85	14.41
434.207	14.43
434.564	14.43
434.92	14.46
435.277	14.44
435.634	14.44
435.99	14.45
436.347	14.46
436.703	14.47
437.06	14.47
437.416	14.5
437.773	14.51
438.129	14.5
438.485	14.51
438.841	14.52
439.198	14.53
439.554	14.52
439.91	14.52
440.266	14.51
440.622	14.49
440.978	14.47
441.334	14.43
441.69	14.4
442.046	14.37
442.402	14.32
442.758	14.29
443.113	14.28
443.469	14.25
443.825	14.21
444.181	14.19
444.536	14.17
444.892	14.14
445.247	14.12
445.603	14.12
445.958	14.1
446.314	14.08
446.669	14.06
447.025	14.05
447.38	14.03
447.735	14.01
448.09	13.97
448.446	13.96
448.801	13.97
449.156	13.95
449.511	13.97
449.866	14
450.221	14.02
450.576	14.04
450.931	14.05
451.286	14.06
451.641	14.06
451.995	14.08
452.35	14.1
452.705	14.12
453.06	14.14
453.414	14.17
453.769	14.19
454.123	14.21
454.478	14.21
454.832	14.22
455.187	14.21
455.541	14.23
455.896	14.23
456.25	14.23
456.604	14.25
456.958	14.25
457.313	14.27
457.667	14.29
458.021	14.32
458.375	14.37
458.729	14.4
459.083	14.45
459.437	14.48
459.791	14.52
460.145	14.56
460.499	14.61
460.852	14.64
461.206	14.71
461.56	14.76
461.914	14.83
462.267	14.9
462.621	14.99
462.974	15.08
463.328	15.2
463.681	15.32
464.035	15.45
464.388	15.58
464.742	15.7
465.095	15.81
465.448	15.89
465.801	15.98
466.155	16.07
466.508	16.15
466.861	16.23
467.214	16.3
467.567	16.36
467.92	16.41
468.273	16.49
468.626	16.53
468.979	16.57
469.332	16.59
469.684	16.65
470.037	16.69
470.39	16.74
470.743	16.82
471.095	16.87
471.448	16.92
471.8	16.95
472.153	16.98
472.505	16.99
472.858	17.02
473.21	17.02
473.562	17.01
473.915	16.99
474.267	16.97
474.619	16.95
474.971	16.93
475.324	16.89
475.676	16.84
476.028	16.81
476.38	16.79
476.732	16.76
477.084	16.7
477.436	16.63
477.787	16.58
478.139	16.48
478.491	16.4
478.843	16.29
479.195	16.19
479.546	16.02
479.898	15.84
480.249	15.67
480.601	15.55
480.952	15.46
481.304	15.41
481.655	15.36
482.007	15.32
482.358	15.29
482.709	15.25
483.061	15.22
483.412	15.2
483.763	15.17
484.114	15.15
484.465	15.14
484.816	15.14
485.167	15.13
485.518	15.15
485.869	15.16
486.22	15.18
486.571	15.22
486.922	15.27
487.272	15.33
487.623	15.42
487.974	15.51
488.324	15.61
488.675	15.7
489.025	15.78
489.376	15.86
489.726	15.96
490.077	16.06
490.427	16.16
490.778	16.27
491.128	16.4
491.478	16.55
491.828	16.72
492.179	16.88
492.529	17.04
492.879	17.21
493.229	17.36
493.579	17.5
493.929	17.62
494.279	17.77
494.629	17.93
494.979	18.12
495.328	18.36
495.678	18.64
496.028	18.9
496.378	19.15
496.727	19.36
497.077	19.55
497.426	19.74
497.776	19.93
498.125	20.08
498.475	20.26
498.824	20.4
499.174	20.57
499.523	20.73
499.872	20.91
500.221	21.06
500.571	21.22
500.92	21.4
501.269	21.57
501.618	21.74
501.967	21.92
502.316	22.09
502.665	22.23
503.014	22.37
503.363	22.51
503.711	22.64
504.06	22.76
504.409	22.88
504.758	22.99
505.106	23.08
505.455	23.19
505.803	23.27
506.152	23.37
506.5	23.45
506.849	23.53
507.197	23.62
507.546	23.7
507.894	23.78
508.242	23.85
508.59	23.93
508.939	24
509.287	24.06
509.635	24.14
509.983	24.22
510.331	24.26
510.679	24.31
511.027	24.37
511.375	24.46
511.723	24.54
512.07	24.6
512.418	24.68
512.766	24.76
513.114	24.82
513.461	24.9
513.809	24.94
514.156	25.01
514.504	25.07
514.851	25.13
515.199	25.17
515.546	25.22
515.893	25.26
516.241	25.3
516.588	25.34
516.935	25.37
517.282	25.39
517.63	25.45
517.977	25.5
518.324	25.55
518.671	25.59
519.018	25.6
519.365	25.65
519.711	25.69
520.058	25.73
520.405	25.77
520.752	25.78
521.099	25.82
521.445	25.85
521.792	25.88
522.138	25.92
522.485	25.99
522.832	26.04
523.178	26.1
523.524	26.17
523.871	26.21
524.217	26.24
524.563	26.26
524.91	26.26
525.256	26.28
525.602	26.27
525.948	26.25
526.294	26.26
526.64	26.26
526.986	26.26
527.332	26.27
527.678	26.28
528.024	26.31
528.37	26.35
528.716	26.35
529.061	26.36
529.407	26.38
529.753	26.38
530.098	26.4
530.444	26.4
530.789	26.4
531.135	26.42
531.48	26.43
531.826	26.46
532.171	26.49
532.516	26.51
532.862	26.53
533.207	26.58
533.552	26.62
533.897	26.65
534.242	26.68
534.587	26.71
534.932	26.73
535.277	26.73
535.622	26.74
535.967	26.79
536.312	26.83
536.657	26.85
537.001	26.89
537.346	26.91
537.691	26.94
538.035	26.98
538.38	26.99
538.724	27.01
539.069	27.02
539.413	27.01
539.758	27.04
540.102	27.08
540.446	27.08
540.791	27.11
541.135	27.14
541.479	27.16
541.823	27.17
542.167	27.18
542.512	27.2
542.856	27.17
543.2	27.17
543.543	27.16
543.887	27.17
544.231	27.18
544.575	27.21
544.919	27.25
545.262	27.28
545.606	27.32
545.95	27.36
546.293	27.4
546.637	27.46
546.98	27.5
547.324	27.51
547.667	27.55
548.011	27.58
548.354	27.59
548.697	27.6
549.04	27.63
549.384	27.67
549.727	27.69
550.07	27.76
550.413	27.78
550.756	27.82
551.099	27.88
551.442	27.92
551.785	27.96
552.128	27.98
552.47	27.98
552.813	27.98
553.156	27.96
553.499	27.96
553.841	27.97
554.184	27.94
554.526	27.96
554.869	27.99
555.211	27.96
555.554	27.95
555.896	27.97
556.238	27.96
556.581	27.95
556.923	27.95
557.265	27.95
557.607	27.92
557.949	27.92
558.291	27.9
558.633	27.88
558.975	27.84
559.317	27.84
559.659	27.84
560.001	27.83
560.343	27.86
560.685	27.84
561.026	27.8
561.368	27.79
561.71	27.73
562.051	27.72
562.393	27.73
562.734	27.7
563.076	27.68
563.417	27.62
563.759	27.63
564.1	27.62
564.441	27.59
564.782	27.6
565.124	27.6
565.465	27.61
565.806	27.59
566.147	27.62
566.488	27.61
566.829	27.6
567.17	27.57
567.511	27.52
567.851	27.52
568.192	27.53
568.533	27.53
568.874	27.55
569.214	27.55
569.555	27.54
569.895	27.53
570.236	27.52
570.576	27.54
570.917	27.48
571.257	27.48
571.598	27.46
571.938	27.43
572.278	27.4
572.618	27.35
572.959	27.36
573.299	27.34
573.639	27.32
573.979	27.3
574.319	27.3
574.659	27.28
574.999	27.27
575.339	27.23
575.678	27.23
576.018	27.21
576.358	27.18
576.698	27.15
577.037	27.11
577.377	27.08
577.716	27.04
578.056	27.07
578.395	27.02
578.735	27.01
579.074	26.99
579.413	26.98
579.753	26.98
580.092	26.94
580.431	26.93
580.77	26.91
581.109	26.88
581.448	26.86
581.787	26.88
582.126	26.84
582.465	26.87
582.804	26.87
583.143	26.86
583.482	26.86
583.82	26.84
584.159	26.85
584.498	26.87
584.836	26.89
585.175	26.88
585.514	26.89
585.852	26.94
586.19	26.93
586.529	26.93
586.867	26.95
587.205	26.96
587.544	26.99
587.882	26.99
588.22	26.97
588.558	26.98
588.896	26.92
589.234	26.9
589.572	26.88
589.91	26.87
590.248	26.87
590.586	26.88
590.924	26.91
591.262	26.9
591.599	26.9
591.937	26.85
592.275	26.85
592.612	26.85
592.95	26.83
593.287	26.84
593.625	26.83
593.962	26.87
594.299	26.88
594.637	26.84
594.974	26.87
595.311	26.91
595.648	26.91
595.985	26.96
596.322	26.97
596.659	26.98
596.996	26.94
597.333	26.93
597.67	26.89
598.007	26.87
598.344	26.88
598.681	26.87
599.017	26.89
599.354	26.88
599.691	26.84
600.027	26.83
600.364	26.82
600.7	26.81
601.037	26.76
601.373	26.75
601.71	26.79
602.046	26.78
602.382	26.76
602.718	26.76
603.054	26.74
603.391	26.75
603.727	26.73
604.063	26.72
604.399	26.72
604.735	26.74
605.071	26.76
605.406	26.75
605.742	26.74
606.078	26.75
606.414	26.79
606.749	26.81
607.085	26.82
607.421	26.84
607.756	26.86
608.092	26.85
608.427	26.81
608.762	26.74
609.098	26.74
609.433	26.69
609.768	26.66
610.104	26.64
610.439	26.62
610.774	26.6
611.109	26.62
611.444	26.6
611.779	26.55
612.114	26.49
612.449	26.44
612.784	26.43
613.118	26.4
613.453	26.31
613.788	26.23
614.123	26.19
614.457	26.16
614.792	26.13
615.126	26.08
615.461	26.07
615.795	26.06
616.13	26.03
616.464	26.01
616.798	26.04
617.132	26.08
617.467	26.12
617.801	26.11
618.135	26.06
618.469	26.11
618.803	26.12
619.137	26.12
619.471	26.13
619.805	26.1
620.139	26.09
620.472	26.1
620.806	26.12
621.14	26.1
621.473	26.08
621.807	26.02
622.141	26.01
622.474	25.98
622.808	25.99
623.141	26
623.474	26.1
623.808	26.07
624.141	26.02
624.474	26.02
624.807	26.02
625.141	26.07
625.474	26.05
625.807	26.12
626.14	26.1
626.473	26.16
626.806	26.21
627.138	26.21
627.471	26.21
627.804	26.24
628.137	26.2
628.469	26.15
628.802	26.19
629.135	26.22
629.467	26.22
629.8	26.22
630.132	26.19
630.465	26.13
630.797	26.13
631.129	26.16
631.461	26.14
631.794	26.18
632.126	26.17
632.458	26.15
632.79	26.13
633.122	26.17
633.454	26.13
633.786	26.06
634.118	26.03
634.45	26.02
634.781	26.01
635.113	26.03
635.445	26.05
635.777	26.05
636.108	26.09
636.44	26.09
636.771	26.08
637.103	26.09
637.434	26.07
637.765	26.07
638.097	25.99
638.428	25.96
638.759	25.9
639.09	25.88
639.422	25.82
639.753	25.75
640.084	25.75
640.415	25.75
640.746	25.8
641.077	25.81
641.407	25.8
641.738	25.75
642.069	25.76
642.4	25.77
642.73	25.76
643.061	25.67
643.392	25.66
643.722	25.69
644.053	25.63
