Data from pcis_p_h4_p1_Reflection_4.txt Node
Date: Wed Jul 12 18:02:17 ART 2017
User: rodoncho
Spectrometer: USB2E3644
Trigger mode: 4
Integration Time (sec): 6.000000E-2
Scans to average: 10
Electric dark correction enabled: true
Nonlinearity correction enabled: false
Boxcar width: 10
XAxis mode: Wavelengths
Number of Pixels in Spectrum: 2048
>>>>>Begin Spectral Data<<<<<
178.315	-103.33
178.696	-107.59
179.076	-142.42
179.457	-219.25
179.838	-810.53
180.218	-176.12
180.599	-176.12
180.979	263.64
181.36	490.32
181.74	39.29
182.121	-75.41
182.501	77.85
182.881	97.65
183.262	92.65
183.642	72.54
184.022	-158.21
184.402	-3914.29
184.783	366.39
185.163	356.52
185.543	333.91
185.923	326.07
186.303	255.15
186.683	240.37
187.063	231.24
187.443	246.54
187.823	200
188.203	176.6
188.583	152.9
188.963	138.03
189.343	132.37
189.723	127.68
190.102	120.65
190.482	113.81
190.862	121.43
191.242	124.24
191.621	132.58
192.001	132.95
192.38	128.4
192.76	122.07
193.14	121.34
193.519	119.89
193.898	119.75
194.278	118.78
194.657	117.38
195.037	112.46
195.416	109.74
195.795	108.84
196.175	108.39
196.554	109.27
196.933	109.42
197.312	109.34
197.692	105.6
198.071	106.5
198.45	108.5
198.829	105.88
199.208	101.64
199.587	100.41
199.966	100.5
200.345	100.39
200.724	101.91
201.103	100.78
201.482	98.12
201.86	95.99
202.239	96.85
202.618	96.01
202.997	96.03
203.375	96.06
203.754	97.14
204.133	98.46
204.511	98.19
204.89	98.86
205.269	100.64
205.647	103.74
206.026	104.9
206.404	106
206.782	104.97
207.161	104.94
207.539	102.89
207.918	103.4
208.296	104.65
208.674	105
209.052	106.51
209.431	107.59
209.809	108.41
210.187	108.85
210.565	110.96
210.943	111.59
211.321	111.62
211.699	110.66
212.077	110.64
212.455	110.59
212.833	110.74
213.211	110.9
213.589	109.95
213.967	109.45
214.345	107.86
214.722	109.65
215.1	111.11
215.478	111.91
215.855	111.93
216.233	111.88
216.611	112.1
216.988	111.01
217.366	110.99
217.743	111.2
218.121	110.33
218.498	110.24
218.876	111.39
219.253	111.84
219.631	111.82
220.008	110.69
220.385	111.15
220.762	111.7
221.14	111.39
221.517	111.03
221.894	110.91
222.271	110.64
222.648	109.78
223.025	110.14
223.402	110.77
223.78	111.14
224.157	112.34
224.533	113.16
224.91	115.64
225.287	116.5
225.664	117.47
226.041	118.98
226.418	118.66
226.795	118.69
227.171	119.61
227.548	120.98
227.925	122.04
228.301	123.09
228.678	122.52
229.055	122.82
229.431	123
229.808	121.92
230.184	122.43
230.561	122.79
230.937	124.26
231.313	125.34
231.69	124.67
232.066	125.05
232.442	125.76
232.819	124.11
233.195	124.75
233.571	125.06
233.947	124.94
234.323	124.41
234.699	123.95
235.075	123.41
235.451	123.11
235.827	124.28
236.203	125.29
236.579	126.13
236.955	126.36
237.331	128.97
237.707	132.98
238.083	136.5
238.459	143.58
238.834	148.11
239.21	155.38
239.586	164.52
239.961	168.79
240.337	170.54
240.713	176.1
241.088	179.81
241.464	185.15
241.839	192.25
242.215	205.93
242.59	224.48
242.965	272.21
243.341	367.32
243.716	584.93
244.091	1254.08
244.467	9520.79
244.842	-1937.12
245.217	-914.04
245.592	-805.75
245.967	-736.78
246.343	-849.87
246.718	-991.52
247.093	-1017.48
247.468	-978.94
247.843	-833.48
248.218	-645.08
248.593	-511.85
248.967	-417.73
249.342	-375.24
249.717	-375.41
250.092	-380.43
250.467	-409.84
250.841	-525.5
251.216	-886.05
251.591	-3835.52
251.965	2329.93
252.34	1186.98
252.714	858.51
253.089	652.23
253.463	639.36
253.838	671.28
254.212	752.45
254.587	944.14
254.961	1339.76
255.335	4960.41
255.71	-1188
256.084	-426.37
256.458	-257.18
256.832	-189.47
257.206	-160.41
257.581	-142.23
257.955	-133.66
258.329	-125.72
258.703	-119.28
259.077	-112.39
259.451	-106.73
259.825	-101.69
260.199	-98.5
260.572	-96.9
260.946	-93.18
261.32	-92.22
261.694	-89.85
262.068	-88.51
262.441	-88.38
262.815	-88.1
263.189	-88.13
263.562	-93.11
263.936	-105.03
264.309	-124.1
264.683	-145.63
265.056	-161.32
265.43	-173.2
265.803	-171.88
266.176	-165.51
266.55	-166.39
266.923	-164.16
267.296	-156.98
267.67	-146.38
268.043	-134.35
268.416	-123.42
268.789	-114.04
269.162	-101.9
269.535	-93.94
269.908	-88.69
270.281	-84.74
270.654	-83.57
271.027	-85.53
271.4	-87.52
271.773	-89.01
272.146	-87
272.519	-83.42
272.891	-80.52
273.264	-78.72
273.637	-78.55
274.01	-79.86
274.382	-77.68
274.755	-75.73
275.127	-75.28
275.5	-77.25
275.872	-78.81
276.245	-78.41
276.617	-79.71
276.99	-84.15
277.362	-87.9
277.734	-88.68
278.107	-88.13
278.479	-83.84
278.851	-80.28
279.223	-76.31
279.596	-75.03
279.968	-75.09
280.34	-75.84
280.712	-74.98
281.084	-71.11
281.456	-65.55
281.828	-61.11
282.2	-57.47
282.572	-54.25
282.944	-51.97
283.315	-50.46
283.687	-49.66
284.059	-49.54
284.431	-49.12
284.802	-48.01
285.174	-47
285.546	-45.8
285.917	-44.75
286.289	-44.44
286.66	-43.85
287.032	-43.74
287.403	-43.04
287.775	-42.66
288.146	-42.02
288.518	-41.64
288.889	-41.92
289.26	-43.32
289.632	-44.24
290.003	-45.52
290.374	-47.25
290.745	-48.22
291.116	-48.53
291.487	-47.72
291.858	-46.91
292.229	-45.93
292.6	-44.29
292.971	-43.05
293.342	-41.33
293.713	-39.9
294.084	-38.66
294.455	-37.82
294.826	-37
295.196	-36.69
295.567	-35.92
295.938	-35.82
296.308	-35.67
296.679	-34.84
297.05	-34.01
297.42	-33.27
297.791	-32.41
298.161	-31.3
298.532	-30.35
298.902	-29.31
299.272	-28.78
299.643	-28.03
300.013	-27.32
300.383	-26.92
300.754	-26.38
301.124	-26.52
301.494	-26.48
301.864	-26.54
302.234	-26.36
302.604	-26.52
302.974	-26.32
303.344	-26.53
303.714	-26.39
304.084	-25.85
304.454	-25.82
304.824	-25.11
305.194	-24.34
305.563	-23.84
305.933	-22.97
306.303	-21.98
306.673	-21.41
307.042	-20.83
307.412	-20.15
307.781	-19.38
308.151	-19.1
308.521	-18.86
308.89	-18.5
309.259	-18.3
309.629	-18.07
309.998	-17.96
310.368	-17.74
310.737	-17.5
311.106	-17.13
311.475	-16.47
311.845	-16.2
312.214	-15.79
312.583	-15.92
312.952	-15.95
313.321	-15.79
313.69	-15.87
314.059	-16.37
314.428	-16.57
314.797	-17.07
315.166	-17.79
315.535	-18.62
315.904	-18.98
316.272	-19.03
316.641	-19.31
317.01	-19.33
317.379	-19.44
317.747	-19.19
318.116	-18.81
318.484	-18.48
318.853	-18.06
319.221	-18.2
319.59	-18.09
319.958	-17.62
320.327	-17.19
320.695	-16.79
321.063	-16.43
321.432	-15.9
321.8	-15.44
322.168	-14.54
322.536	-13.44
322.905	-12.71
323.273	-12.11
323.641	-11.54
324.009	-11.49
324.377	-11.02
324.745	-10.81
325.113	-10.52
325.481	-10.26
325.849	-9.86
326.216	-9.42
326.584	-8.88
326.952	-8.19
327.32	-7.79
327.687	-7.6
328.055	-7.27
328.423	-7.12
328.79	-7.05
329.158	-7.2
329.525	-7.01
329.893	-6.99
330.26	-7.06
330.628	-6.94
330.995	-6.71
331.362	-6.28
331.73	-5.6
332.097	-5.28
332.464	-4.9
332.831	-4.77
333.199	-4.43
333.566	-4.23
333.933	-4.1
334.3	-4.09
334.667	-4.08
335.034	-3.91
335.401	-3.81
335.768	-3.63
336.135	-3.36
336.502	-3.09
336.868	-2.73
337.235	-2.55
337.602	-2.39
337.969	-2.25
338.335	-1.9
338.702	-1.6
339.069	-1.52
339.435	-1.37
339.802	-1.28
340.168	-1.05
340.535	-0.68
340.901	-0.64
341.267	-0.49
341.634	-0.25
342	0.06
342.366	0.19
342.733	0.33
343.099	0.55
343.465	0.74
343.831	1.04
344.197	1.12
344.563	1.23
344.929	1.45
345.295	1.66
345.661	1.89
346.027	1.88
346.393	1.86
346.759	1.8
347.125	1.77
347.491	1.82
347.856	1.8
348.222	1.84
348.588	1.99
348.953	1.97
349.319	2.03
349.684	2.01
350.05	2.2
350.415	2.42
350.781	2.51
351.146	2.59
351.512	2.47
351.877	2.64
352.242	2.79
352.608	2.87
352.973	2.92
353.338	2.98
353.703	3.16
354.068	3.36
354.433	3.55
354.798	3.71
355.164	3.89
355.528	3.95
355.893	3.92
356.258	3.98
356.623	4.12
356.988	4.25
357.353	4.43
357.718	4.49
358.082	4.47
358.447	4.5
358.812	4.58
359.176	4.75
359.541	4.76
359.905	4.83
360.27	4.98
360.634	5.11
360.999	5.17
361.363	5.28
361.728	5.26
362.092	5.25
362.456	5.25
362.821	5.3
363.185	5.41
363.549	5.57
363.913	5.63
364.277	5.72
364.641	5.72
365.005	5.75
365.369	5.79
365.733	5.92
366.097	6.06
366.461	6.16
366.825	6.25
367.189	6.4
367.553	6.48
367.916	6.55
368.28	6.58
368.644	6.74
369.007	6.8
369.371	6.93
369.734	7.07
370.098	7.22
370.461	7.3
370.825	7.47
371.188	7.56
371.552	7.67
371.915	7.8
372.278	8.01
372.642	8.1
373.005	8.21
373.368	8.21
373.731	8.25
374.094	8.31
374.457	8.32
374.82	8.35
375.183	8.38
375.546	8.38
375.909	8.46
376.272	8.47
376.635	8.49
376.998	8.57
377.361	8.64
377.723	8.73
378.086	8.79
378.449	8.83
378.811	8.94
379.174	8.97
379.537	9.01
379.899	9
380.262	9.08
380.624	9.09
380.987	9.18
381.349	9.23
381.711	9.29
382.074	9.31
382.436	9.4
382.798	9.47
383.16	9.48
383.522	9.54
383.884	9.62
384.247	9.72
384.609	9.77
384.971	9.79
385.333	9.84
385.695	9.84
386.056	9.85
386.418	9.84
386.78	9.88
387.142	9.89
387.504	9.94
387.865	9.9
388.227	9.92
388.589	9.93
388.95	9.94
389.312	9.93
389.673	9.98
390.035	9.94
390.396	9.92
390.758	9.89
391.119	9.85
391.48	9.8
391.842	9.78
392.203	9.75
392.564	9.75
392.925	9.7
393.286	9.7
393.648	9.67
394.009	9.66
394.37	9.64
394.731	9.62
395.092	9.54
395.452	9.56
395.813	9.59
396.174	9.6
396.535	9.58
396.896	9.59
397.257	9.56
397.617	9.56
397.978	9.59
398.338	9.68
398.699	9.7
399.06	9.72
399.42	9.74
399.781	9.72
400.141	9.7
400.501	9.69
400.862	9.74
401.222	9.75
401.582	9.74
401.943	9.74
402.303	9.77
402.663	9.82
403.023	9.81
403.383	9.8
403.743	9.77
404.103	9.82
404.463	9.86
404.823	9.89
405.183	9.89
405.543	9.91
405.903	9.92
406.262	9.94
406.622	9.94
406.982	9.95
407.342	10.01
407.701	10.03
408.061	10.03
408.42	10.02
408.78	10.07
409.139	10.09
409.499	10.13
409.858	10.16
410.217	10.17
410.577	10.17
410.936	10.17
411.295	10.2
411.655	10.16
412.014	10.13
412.373	10.1
412.732	10.07
413.091	10.01
413.45	9.94
413.809	9.89
414.168	9.85
414.527	9.75
414.886	9.65
415.245	9.57
415.603	9.52
415.962	9.41
416.321	9.33
416.679	9.26
417.038	9.15
417.397	9.07
417.755	8.98
418.114	8.92
418.472	8.84
418.831	8.79
419.189	8.75
419.547	8.7
419.906	8.65
420.264	8.59
420.622	8.54
420.981	8.5
421.339	8.45
421.697	8.41
422.055	8.39
422.413	8.38
422.771	8.37
423.129	8.35
423.487	8.37
423.845	8.36
424.203	8.35
424.56	8.37
424.918	8.37
425.276	8.39
425.634	8.42
425.991	8.43
426.349	8.44
426.707	8.46
427.064	8.46
427.422	8.49
427.779	8.55
428.137	8.58
428.494	8.63
428.851	8.69
429.209	8.73
429.566	8.75
429.923	8.78
430.28	8.78
430.637	8.83
430.995	8.83
431.352	8.84
431.709	8.85
432.066	8.89
432.423	8.92
432.78	8.95
433.137	8.95
433.493	8.98
433.85	9.01
434.207	9.03
434.564	9.04
434.92	9.05
435.277	9.06
435.634	9.07
435.99	9.08
436.347	9.07
436.703	9.09
437.06	9.1
437.416	9.1
437.773	9.12
438.129	9.1
438.485	9.11
438.841	9.12
439.198	9.13
439.554	9.1
439.91	9.1
440.266	9.09
440.622	9.1
440.978	9.09
441.334	9.04
441.69	9.01
442.046	8.98
442.402	8.94
442.758	8.88
443.113	8.85
443.469	8.8
443.825	8.77
444.181	8.74
444.536	8.74
444.892	8.74
445.247	8.71
445.603	8.68
445.958	8.65
446.314	8.63
446.669	8.6
447.025	8.59
447.38	8.55
447.735	8.54
448.09	8.5
448.446	8.48
448.801	8.48
449.156	8.45
449.511	8.46
449.866	8.47
450.221	8.51
450.576	8.5
450.931	8.51
451.286	8.52
451.641	8.51
451.995	8.51
452.35	8.52
452.705	8.55
453.06	8.56
453.414	8.6
453.769	8.61
454.123	8.62
454.478	8.64
454.832	8.66
455.187	8.68
455.541	8.7
455.896	8.71
456.25	8.72
456.604	8.75
456.958	8.75
457.313	8.77
457.667	8.78
458.021	8.81
458.375	8.86
458.729	8.92
459.083	8.97
459.437	9.01
459.791	9.05
460.145	9.09
460.499	9.15
460.852	9.21
461.206	9.27
461.56	9.34
461.914	9.42
462.267	9.48
462.621	9.57
462.974	9.68
463.328	9.8
463.681	9.94
464.035	10.08
464.388	10.2
464.742	10.32
465.095	10.45
465.448	10.57
465.801	10.66
466.155	10.74
466.508	10.83
466.861	10.91
467.214	10.99
467.567	11.07
467.92	11.12
468.273	11.17
468.626	11.23
468.979	11.29
469.332	11.33
469.684	11.37
470.037	11.4
470.39	11.43
470.743	11.47
471.095	11.51
471.448	11.56
471.8	11.61
472.153	11.62
472.505	11.62
472.858	11.61
473.21	11.61
473.562	11.59
473.915	11.55
474.267	11.52
474.619	11.45
474.971	11.39
475.324	11.36
475.676	11.3
476.028	11.25
476.38	11.17
476.732	11.1
477.084	11.02
477.436	10.95
477.787	10.85
478.139	10.74
478.491	10.63
478.843	10.5
479.195	10.38
479.546	10.21
479.898	10.04
480.249	9.88
480.601	9.74
480.952	9.64
481.304	9.55
481.655	9.5
482.007	9.45
482.358	9.41
482.709	9.36
483.061	9.33
483.412	9.3
483.763	9.28
484.114	9.26
484.465	9.24
484.816	9.24
485.167	9.24
485.518	9.24
485.869	9.25
486.22	9.27
486.571	9.29
486.922	9.32
487.272	9.37
487.623	9.43
487.974	9.52
488.324	9.61
488.675	9.7
489.025	9.77
489.376	9.86
489.726	9.94
490.077	10.04
490.427	10.14
490.778	10.25
491.128	10.38
491.478	10.52
491.828	10.68
492.179	10.84
492.529	11.01
492.879	11.18
493.229	11.35
493.579	11.5
493.929	11.65
494.279	11.81
494.629	11.98
494.979	12.17
495.328	12.41
495.678	12.67
496.028	12.94
496.378	13.19
496.727	13.41
497.077	13.63
497.426	13.83
497.776	13.99
498.125	14.16
498.475	14.33
498.824	14.49
499.174	14.63
499.523	14.79
499.872	14.95
500.221	15.13
500.571	15.31
500.92	15.49
501.269	15.66
501.618	15.82
501.967	15.98
502.316	16.15
502.665	16.3
503.014	16.45
503.363	16.6
503.711	16.73
504.06	16.84
504.409	16.94
504.758	17.02
505.106	17.13
505.455	17.22
505.803	17.29
506.152	17.37
506.5	17.45
506.849	17.51
507.197	17.58
507.546	17.65
507.894	17.69
508.242	17.74
508.59	17.79
508.939	17.84
509.287	17.87
509.635	17.92
509.983	17.95
510.331	17.99
510.679	18.01
511.027	18.04
511.375	18.07
511.723	18.11
512.07	18.18
512.418	18.21
512.766	18.24
513.114	18.27
513.461	18.3
513.809	18.31
514.156	18.33
514.504	18.35
514.851	18.33
515.199	18.35
515.546	18.36
515.893	18.36
516.241	18.36
516.588	18.38
516.935	18.37
517.282	18.38
517.63	18.37
517.977	18.36
518.324	18.37
518.671	18.38
519.018	18.37
519.365	18.35
519.711	18.33
520.058	18.33
520.405	18.32
520.752	18.31
521.099	18.32
521.445	18.32
521.792	18.3
522.138	18.29
522.485	18.26
522.832	18.26
523.178	18.26
523.524	18.26
523.871	18.24
524.217	18.21
524.563	18.16
524.91	18.1
525.256	18.05
525.602	18.02
525.948	17.97
526.294	17.94
526.64	17.91
526.986	17.91
527.332	17.88
527.678	17.88
528.024	17.86
528.37	17.85
528.716	17.82
529.061	17.82
529.407	17.8
529.753	17.77
530.098	17.74
530.444	17.71
530.789	17.68
531.135	17.66
531.48	17.66
531.826	17.65
532.171	17.65
532.516	17.62
532.862	17.6
533.207	17.61
533.552	17.59
533.897	17.58
534.242	17.55
534.587	17.52
534.932	17.5
535.277	17.49
535.622	17.46
535.967	17.46
536.312	17.44
536.657	17.43
537.001	17.42
537.346	17.39
537.691	17.35
538.035	17.3
538.38	17.26
538.724	17.21
539.069	17.16
539.413	17.12
539.758	17.09
540.102	17.04
540.446	17
540.791	16.97
541.135	16.96
541.479	16.95
541.823	16.94
542.167	16.91
542.512	16.89
542.856	16.85
543.2	16.82
543.543	16.78
543.887	16.75
544.231	16.73
544.575	16.7
544.919	16.69
545.262	16.67
545.606	16.64
545.95	16.62
546.293	16.61
546.637	16.6
546.98	16.59
547.324	16.58
547.667	16.57
548.011	16.55
548.354	16.51
548.697	16.47
549.04	16.44
549.384	16.41
549.727	16.37
550.07	16.33
550.413	16.31
550.756	16.26
551.099	16.23
551.442	16.16
551.785	16.14
552.128	16.09
552.47	16.03
552.813	16
553.156	15.95
553.499	15.89
553.841	15.86
554.184	15.8
554.526	15.76
554.869	15.69
555.211	15.63
555.554	15.58
555.896	15.53
556.238	15.47
556.581	15.39
556.923	15.34
557.265	15.31
557.607	15.27
557.949	15.23
558.291	15.16
558.633	15.08
558.975	15.03
559.317	14.99
559.659	14.93
560.001	14.86
560.343	14.83
560.685	14.8
561.026	14.73
561.368	14.69
561.71	14.62
562.051	14.56
562.393	14.53
562.734	14.47
563.076	14.43
563.417	14.37
563.759	14.32
564.1	14.25
564.441	14.2
564.782	14.12
565.124	14.07
565.465	14.05
565.806	14.03
566.147	13.97
566.488	13.94
566.829	13.91
567.17	13.87
567.511	13.81
567.851	13.75
568.192	13.72
568.533	13.65
568.874	13.63
569.214	13.59
569.555	13.52
569.895	13.45
570.236	13.39
570.576	13.36
570.917	13.32
571.257	13.25
571.598	13.2
571.938	13.17
572.278	13.13
572.618	13.1
572.959	13.04
573.299	13.01
573.639	12.96
573.979	12.92
574.319	12.88
574.659	12.83
574.999	12.78
575.339	12.71
575.678	12.67
576.018	12.6
576.358	12.54
576.698	12.51
577.037	12.51
577.377	12.46
577.716	12.39
578.056	12.34
578.395	12.31
578.735	12.25
579.074	12.18
579.413	12.13
579.753	12.07
580.092	12.03
580.431	12
580.77	11.97
581.109	11.95
581.448	11.9
581.787	11.86
582.126	11.8
582.465	11.76
582.804	11.72
583.143	11.65
583.482	11.63
583.82	11.59
584.159	11.54
584.498	11.5
584.836	11.44
585.175	11.41
585.514	11.37
585.852	11.35
586.19	11.31
586.529	11.27
586.867	11.25
587.205	11.21
587.544	11.16
587.882	11.12
588.22	11.06
588.558	11.02
588.896	11
589.234	11.01
589.572	10.96
589.91	10.92
590.248	10.9
590.586	10.85
590.924	10.83
591.262	10.82
591.599	10.77
591.937	10.77
592.275	10.75
592.612	10.71
592.95	10.68
593.287	10.67
593.625	10.67
593.962	10.67
594.299	10.65
594.637	10.61
594.974	10.58
595.311	10.55
595.648	10.54
595.985	10.5
596.322	10.46
596.659	10.44
596.996	10.41
597.333	10.37
597.67	10.36
598.007	10.32
598.344	10.27
598.681	10.24
599.017	10.21
599.354	10.16
599.691	10.16
600.027	10.13
600.364	10.1
600.7	10.1
601.037	10.04
601.373	10.03
601.71	10.03
602.046	10.04
602.382	10.04
602.718	10.01
603.054	10.01
603.391	9.99
603.727	9.98
604.063	9.98
604.399	9.95
604.735	9.91
605.071	9.91
605.406	9.9
605.742	9.88
606.078	9.88
606.414	9.9
606.749	9.88
607.085	9.87
607.421	9.86
607.756	9.81
608.092	9.76
608.427	9.7
608.762	9.66
609.098	9.57
609.433	9.53
609.768	9.48
610.104	9.44
610.439	9.42
610.774	9.39
611.109	9.37
611.444	9.37
611.779	9.38
612.114	9.32
612.449	9.25
612.784	9.2
613.118	9.15
613.453	9.06
613.788	9
614.123	8.92
614.457	8.84
614.792	8.79
615.126	8.74
615.461	8.7
615.795	8.65
616.13	8.65
616.464	8.61
616.798	8.62
617.132	8.61
617.467	8.57
617.801	8.52
618.135	8.49
618.469	8.43
618.803	8.37
619.137	8.35
619.471	8.36
619.805	8.37
620.139	8.3
620.472	8.31
620.806	8.28
621.14	8.24
621.473	8.22
621.807	8.21
622.141	8.19
622.474	8.16
622.808	8.13
623.141	8.12
623.474	8.12
623.808	8.09
624.141	8.08
624.474	8.1
624.807	8.12
625.141	8.11
625.474	8.12
625.807	8.13
626.14	8.13
626.473	8.14
626.806	8.15
627.138	8.17
627.471	8.16
627.804	8.18
628.137	8.16
628.469	8.14
628.802	8.12
629.135	8.07
629.467	8.05
629.8	8.04
630.132	8.02
630.465	8.02
630.797	8.03
631.129	8
631.461	7.98
631.794	7.99
632.126	7.97
632.458	7.96
632.79	7.94
633.122	7.95
633.454	7.93
633.786	7.9
634.118	7.89
634.45	7.86
634.781	7.8
635.113	7.78
635.445	7.79
635.777	7.75
636.108	7.79
636.44	7.78
636.771	7.76
637.103	7.71
637.434	7.63
637.765	7.62
638.097	7.61
638.428	7.57
638.759	7.53
639.09	7.49
639.422	7.45
639.753	7.41
640.084	7.38
640.415	7.37
640.746	7.34
641.077	7.29
641.407	7.27
641.738	7.25
642.069	7.3
642.4	7.26
642.73	7.27
643.061	7.28
643.392	7.34
643.722	7.34
644.053	7.32
644.383	7.33
644.713	7.3
645.044	7.26
645.374	7.25
645.704	7.21
646.034	7.25
646.365	7.26
646.695	7.26
647.025	7.22
647.355	7.23
647.685	7.19
648.015	7.23
648.344	7.27
648.674	7.28
649.004	7.26
649.334	7.26
649.663	7.25
649.993	7.26
650.323	7.22
650.652	7.19
650.982	7.21
651.311	7.2
651.64	7.2
651.97	7.18
652.299	7.2
652.628	7.24
652.958	7.21
653.287	7.21
