Data from pcis_p_h3_p5_Reflection_4.txt Node
Date: Wed Jul 12 17:55:00 ART 2017
User: rodoncho
Spectrometer: USB2E3644
Trigger mode: 4
Integration Time (sec): 6.000000E-2
Scans to average: 10
Electric dark correction enabled: true
Nonlinearity correction enabled: false
Boxcar width: 10
XAxis mode: Wavelengths
Number of Pixels in Spectrum: 2048
>>>>>Begin Spectral Data<<<<<
178.315	-48.58
178.696	-33.33
179.076	-29.6
179.457	-92.38
179.838	-58.33
180.218	-296.67
180.599	-134.17
180.979	-5
181.36	-84.52
181.74	-37.63
182.121	101.04
182.501	81.08
182.881	89.76
183.262	70.33
183.642	27.08
184.022	131.16
184.402	76.01
184.783	69.31
185.163	73.88
185.543	80.44
185.923	80.29
186.303	87.65
186.683	92.73
187.063	94.21
187.443	100.87
187.823	106.36
188.203	109.4
188.583	114.81
188.963	122.49
189.343	122.56
189.723	122.93
190.102	117.87
190.482	111.79
190.862	110.92
191.242	111.45
191.621	117.06
192.001	119.85
192.38	129.22
192.76	133.14
193.14	129.91
193.519	130.18
193.898	129.68
194.278	122.33
194.657	120.36
195.037	119.74
195.416	116.13
195.795	114.05
196.175	115
196.554	112.47
196.933	113.01
197.312	114.21
197.692	115.63
198.071	114.95
198.45	114.66
198.829	113.9
199.208	113.81
199.587	113.32
199.966	110.41
200.345	108.75
200.724	107.88
201.103	109.16
201.482	107.41
201.86	105.59
202.239	106.15
202.618	106.5
202.997	107.69
203.375	109.54
203.754	109.22
204.133	107.04
204.511	106.81
204.89	106.6
205.269	106.44
205.647	106.01
206.026	107.1
206.404	107.99
206.782	107.95
207.161	107.48
207.539	107.34
207.918	108.88
208.296	109.31
208.674	109.04
209.052	107.54
209.431	107.85
209.809	109.05
210.187	109.14
210.565	109.6
210.943	109.05
211.321	107.64
211.699	106.8
212.077	105.81
212.455	105.76
212.833	104.44
213.211	104.64
213.589	105.35
213.967	104.12
214.345	102.99
214.722	103.05
215.1	102.73
215.478	103.27
215.855	104.15
216.233	104.42
216.611	105.5
216.988	105.88
217.366	106.52
217.743	106.95
218.121	106.78
218.498	105.4
218.876	104.09
219.253	105.1
219.631	106.14
220.008	108.49
220.385	109.2
220.762	109.37
221.14	109.03
221.517	107.4
221.894	106.87
222.271	107.16
222.648	107.65
223.025	110.43
223.402	111.94
223.78	112.56
224.157	113.1
224.533	112.95
224.91	114.14
225.287	114.23
225.664	115.21
226.041	114.46
226.418	114.29
226.795	115.09
227.171	115.21
227.548	116.86
227.925	116.65
228.301	115.63
228.678	116.26
229.055	115.61
229.431	116.46
229.808	117.27
230.184	118.41
230.561	118.9
230.937	117.5
231.313	116.7
231.69	116.48
232.066	116.73
232.442	116.8
232.819	116.2
233.195	116.63
233.571	115.15
233.947	116.68
234.323	118.94
234.699	119.41
235.075	118.42
235.451	118.61
235.827	118.35
236.203	119.17
236.579	118.17
236.955	120
237.331	120.72
237.707	122.92
238.083	123.82
238.459	126.27
238.834	131.12
239.21	135.11
239.586	139.55
239.961	142.12
240.337	143.22
240.713	144.46
241.088	144.62
241.464	149.78
241.839	156.41
242.215	162.96
242.59	176.56
242.965	206.09
243.341	251.48
243.716	330.16
244.091	470.64
244.467	740.28
244.842	1189.81
245.217	3574.21
245.592	50372.22
245.967	-5404.17
246.343	-6334.03
246.718	-153816.67
247.093	-15341.67
247.468	-9582.29
247.843	-4383.33
248.218	-1700.19
248.593	-974.47
248.967	-662.79
249.342	-601.25
249.717	-624.97
250.092	-667.32
250.467	-836.56
250.841	-1741.57
251.216	4021.49
251.591	1058.05
251.965	644.51
252.34	511.99
252.714	448.08
253.089	400.29
253.463	391.06
253.838	398.08
254.212	424.91
254.587	479.23
254.961	551.58
255.335	756.68
255.71	2298.79
256.084	-1166.79
256.458	-460.11
256.832	-297.9
257.206	-237.56
257.581	-209.08
257.955	-190.81
258.329	-178.14
258.703	-165.14
259.077	-153.04
259.451	-145.56
259.825	-137.12
260.199	-133.5
260.572	-128.7
260.946	-123.07
261.32	-119.86
261.694	-115.49
262.068	-112.56
262.441	-111.17
262.815	-110.54
263.189	-110.11
263.562	-117.87
263.936	-136.45
264.309	-161.54
264.683	-194.16
265.056	-216
265.43	-230.01
265.803	-229.76
266.176	-216.87
266.55	-214.98
266.923	-205.49
267.296	-192.76
267.67	-182.69
268.043	-163.76
268.416	-147.56
268.789	-135.37
269.162	-121.19
269.535	-113.4
269.908	-109.86
270.281	-105.47
270.654	-103.91
271.027	-106.95
271.4	-109.19
271.773	-108.78
272.146	-106.65
272.519	-102.59
272.891	-98.89
273.264	-95.93
273.637	-94.2
274.01	-95.02
274.382	-93.26
274.755	-93.1
275.127	-93.05
275.5	-93.17
275.872	-93.96
276.245	-94.99
276.617	-97.79
276.99	-101.24
277.362	-103.22
277.734	-101.72
278.107	-101.24
278.479	-96.78
278.851	-94.33
279.223	-89.57
279.596	-87.3
279.968	-85.86
280.34	-85.36
280.712	-82.88
281.084	-79.14
281.456	-72.79
281.828	-66.69
282.2	-60.68
282.572	-56.9
282.944	-53.65
283.315	-52.33
283.687	-51.75
284.059	-51.49
284.431	-50.4
284.802	-49.54
285.174	-48
285.546	-46.19
285.917	-45.14
286.289	-43.95
286.66	-42.14
287.032	-41.63
287.403	-41.31
287.775	-40.95
288.146	-40.76
288.518	-40.94
288.889	-40.48
289.26	-41.38
289.632	-42.68
290.003	-44.63
290.374	-45.85
290.745	-46.88
291.116	-46.02
291.487	-44.65
291.858	-42.96
292.229	-41.89
292.6	-40.56
292.971	-39.13
293.342	-37.23
293.713	-35.22
294.084	-34.19
294.455	-33.99
294.826	-33.57
295.196	-33.26
295.567	-33.06
295.938	-32.54
296.308	-32.17
296.679	-31.48
297.05	-31.25
297.42	-30.85
297.791	-30.13
298.161	-29.5
298.532	-29.12
298.902	-28.73
299.272	-28.08
299.643	-27.64
300.013	-27.25
300.383	-26.94
300.754	-26.52
301.124	-26.62
301.494	-26.93
301.864	-26.9
302.234	-26.32
302.604	-26.12
302.974	-26.06
303.344	-25.71
303.714	-25.79
304.084	-25.72
304.454	-26.02
304.824	-25.3
305.194	-24.35
305.563	-23.69
305.933	-22.42
306.303	-20.51
306.673	-19.42
307.042	-18.8
307.412	-17.75
307.781	-16.54
308.151	-15.36
308.521	-15.18
308.89	-14.88
309.259	-14.46
309.629	-13.87
309.998	-13.81
310.368	-13.48
310.737	-12.81
311.106	-12.24
311.475	-11.39
311.845	-10.82
312.214	-10.06
312.583	-9.3
312.952	-8.79
313.321	-8.37
313.69	-8.21
314.059	-8.8
314.428	-9.07
314.797	-9.08
315.166	-9.89
315.535	-10.56
315.904	-11.05
316.272	-10.93
316.641	-10.9
317.01	-10.76
317.379	-11.18
317.747	-10.49
318.116	-10.32
318.484	-9.9
318.853	-9.44
319.221	-9.14
319.59	-8.71
319.958	-8.72
320.327	-8.72
320.695	-8.65
321.063	-8.37
321.432	-8
321.8	-7.31
322.168	-6.54
322.536	-5.9
322.905	-4.82
323.273	-4.01
323.641	-3.36
324.009	-3.09
324.377	-2.73
324.745	-2.19
325.113	-1.56
325.481	-1.26
325.849	-0.75
326.216	-0.29
326.584	0.03
326.952	0.18
327.32	0.36
327.687	0.73
328.055	0.91
328.423	1.23
328.79	1.47
329.158	1.58
329.525	1.77
329.893	1.95
330.26	2.04
330.628	2.05
330.995	2.22
331.362	2.36
331.73	2.91
332.097	3.42
332.464	3.66
332.831	3.66
333.199	3.83
333.566	4.11
333.933	3.92
334.3	3.81
334.667	4.01
335.034	4.16
335.401	4.3
335.768	4.45
336.135	4.69
336.502	4.88
336.868	5.19
337.235	5.56
337.602	5.89
337.969	6.29
338.335	6.77
338.702	7.03
339.069	7.36
339.435	7.59
339.802	7.66
340.168	7.75
340.535	8.15
340.901	8.36
341.267	8.51
341.634	9.03
342	9.42
342.366	9.71
342.733	10.02
343.099	10.35
343.465	10.69
343.831	10.79
344.197	10.91
344.563	11.11
344.929	11.16
345.295	11.19
345.661	11.21
346.027	11.26
346.393	11.32
346.759	11.25
347.125	11.32
347.491	11.49
347.856	11.68
348.222	11.71
348.588	11.88
348.953	11.99
349.319	12.07
349.684	12.17
350.05	12.24
350.415	12.35
350.781	12.56
351.146	12.71
351.512	12.93
351.877	13.2
352.242	13.3
352.608	13.52
352.973	13.7
353.338	13.77
353.703	13.79
354.068	13.88
354.433	14.07
354.798	14.2
355.164	14.28
355.528	14.28
355.893	14.41
356.258	14.4
356.623	14.46
356.988	14.52
357.353	14.62
357.718	14.79
358.082	14.88
358.447	14.83
358.812	14.82
359.176	14.86
359.541	14.89
359.905	14.92
360.27	14.87
360.634	14.9
360.999	14.99
361.363	15.09
361.728	15.13
362.092	15.16
362.456	15.16
362.821	15.2
363.185	15.27
363.549	15.32
363.913	15.44
364.277	15.52
364.641	15.62
365.005	15.69
365.369	15.67
365.733	15.68
366.097	15.81
366.461	15.88
366.825	15.93
367.189	16.01
367.553	16.21
367.916	16.36
368.28	16.38
368.644	16.58
369.007	16.75
369.371	16.85
369.734	16.96
370.098	17.04
370.461	17.1
370.825	17.21
371.188	17.33
371.552	17.4
371.915	17.44
372.278	17.53
372.642	17.58
373.005	17.67
373.368	17.71
373.731	17.74
374.094	17.72
374.457	17.71
374.82	17.7
375.183	17.55
375.546	17.58
375.909	17.67
376.272	17.53
376.635	17.45
376.998	17.44
377.361	17.41
377.723	17.37
378.086	17.44
378.449	17.45
378.811	17.49
379.174	17.5
379.537	17.56
379.899	17.55
380.262	17.58
380.624	17.62
380.987	17.61
381.349	17.61
381.711	17.69
382.074	17.76
382.436	17.8
382.798	17.92
383.16	17.88
383.522	17.87
383.884	17.94
384.247	18.05
384.609	18.07
384.971	18.13
385.333	18.18
385.695	18.18
386.056	18.2
386.418	18.2
386.78	18.18
387.142	18.15
387.504	18.09
387.865	18.04
388.227	17.91
388.589	17.93
388.95	17.9
389.312	17.84
389.673	17.78
390.035	17.75
390.396	17.67
390.758	17.64
391.119	17.64
391.48	17.61
391.842	17.58
392.203	17.51
392.564	17.46
392.925	17.43
393.286	17.36
393.648	17.28
394.009	17.18
394.37	17.08
394.731	17.03
395.092	16.98
395.452	16.94
395.813	16.97
396.174	16.92
396.535	16.85
396.896	16.86
397.257	16.8
397.617	16.75
397.978	16.73
398.338	16.71
398.699	16.62
399.06	16.55
399.42	16.41
399.781	16.41
400.141	16.36
400.501	16.3
400.862	16.29
401.222	16.27
401.582	16.27
401.943	16.26
402.303	16.25
402.663	16.25
403.023	16.23
403.383	16.2
403.743	16.19
404.103	16.22
404.463	16.19
404.823	16.19
405.183	16.2
405.543	16.19
405.903	16.21
406.262	16.23
406.622	16.26
406.982	16.3
407.342	16.3
407.701	16.3
408.061	16.26
408.42	16.26
408.78	16.24
409.139	16.26
409.499	16.27
409.858	16.29
410.217	16.32
410.577	16.31
410.936	16.29
411.295	16.22
411.655	16.2
412.014	16.12
412.373	16.1
412.732	16
413.091	15.93
413.45	15.83
413.809	15.76
414.168	15.6
414.527	15.5
414.886	15.37
415.245	15.27
415.603	15.18
415.962	15.01
416.321	14.91
416.679	14.78
417.038	14.64
417.397	14.48
417.755	14.33
418.114	14.21
418.472	14.11
418.831	14.03
419.189	13.92
419.547	13.84
419.906	13.74
420.264	13.65
420.622	13.56
420.981	13.48
421.339	13.4
421.697	13.35
422.055	13.28
422.413	13.25
422.771	13.2
423.129	13.16
423.487	13.16
423.845	13.12
424.203	13.09
424.56	13.07
424.918	13.07
425.276	13.06
425.634	13.07
425.991	13.06
426.349	13.06
426.707	13.07
427.064	13.08
427.422	13.11
427.779	13.15
428.137	13.19
428.494	13.23
428.851	13.26
429.209	13.29
429.566	13.32
429.923	13.31
430.28	13.3
430.637	13.35
430.995	13.34
431.352	13.36
431.709	13.37
432.066	13.41
432.423	13.44
432.78	13.46
433.137	13.5
433.493	13.53
433.85	13.56
434.207	13.57
434.564	13.56
434.92	13.59
435.277	13.59
435.634	13.61
435.99	13.63
436.347	13.64
436.703	13.65
437.06	13.65
437.416	13.66
437.773	13.7
438.129	13.67
438.485	13.69
438.841	13.7
439.198	13.7
439.554	13.68
439.91	13.69
440.266	13.66
440.622	13.62
440.978	13.59
441.334	13.54
441.69	13.5
442.046	13.43
442.402	13.35
442.758	13.24
443.113	13.17
443.469	13.07
443.825	13.03
444.181	12.97
444.536	12.9
444.892	12.85
445.247	12.78
445.603	12.74
445.958	12.68
446.314	12.63
446.669	12.57
447.025	12.53
447.38	12.47
447.735	12.44
448.09	12.39
448.446	12.36
448.801	12.3
449.156	12.25
449.511	12.24
449.866	12.24
450.221	12.25
450.576	12.2
450.931	12.19
451.286	12.16
451.641	12.15
451.995	12.14
452.35	12.15
452.705	12.15
453.06	12.16
453.414	12.18
453.769	12.19
454.123	12.2
454.478	12.19
454.832	12.2
455.187	12.19
455.541	12.18
455.896	12.18
456.25	12.2
456.604	12.23
456.958	12.24
457.313	12.26
457.667	12.31
458.021	12.36
458.375	12.43
458.729	12.48
459.083	12.52
459.437	12.6
459.791	12.64
460.145	12.69
460.499	12.76
460.852	12.82
461.206	12.89
461.56	12.97
461.914	13.06
462.267	13.17
462.621	13.3
462.974	13.43
463.328	13.58
463.681	13.75
464.035	13.92
464.388	14.1
464.742	14.24
465.095	14.38
465.448	14.54
465.801	14.66
466.155	14.79
466.508	14.92
466.861	15.03
467.214	15.14
467.567	15.23
467.92	15.31
468.273	15.41
468.626	15.5
468.979	15.59
469.332	15.64
469.684	15.68
470.037	15.73
470.39	15.78
470.743	15.85
471.095	15.88
471.448	15.93
471.8	15.95
472.153	15.96
472.505	15.98
472.858	15.97
473.21	15.93
473.562	15.87
473.915	15.81
474.267	15.73
474.619	15.66
474.971	15.6
475.324	15.49
475.676	15.4
476.028	15.28
476.38	15.17
476.732	15.06
477.084	14.95
477.436	14.81
477.787	14.67
478.139	14.53
478.491	14.4
478.843	14.23
479.195	14.07
479.546	13.84
479.898	13.6
480.249	13.35
480.601	13.18
480.952	13.04
481.304	12.93
481.655	12.86
482.007	12.8
482.358	12.73
482.709	12.69
483.061	12.63
483.412	12.61
483.763	12.58
484.114	12.56
484.465	12.55
484.816	12.54
485.167	12.54
485.518	12.55
485.869	12.56
486.22	12.58
486.571	12.61
486.922	12.66
487.272	12.72
487.623	12.82
487.974	12.94
488.324	13.07
488.675	13.19
489.025	13.3
489.376	13.41
489.726	13.54
490.077	13.66
490.427	13.8
490.778	13.95
491.128	14.12
491.478	14.3
491.828	14.53
492.179	14.76
492.529	15.01
492.879	15.25
493.229	15.48
493.579	15.71
493.929	15.95
494.279	16.19
494.629	16.45
494.979	16.78
495.328	17.15
495.678	17.58
496.028	18.03
496.378	18.44
496.727	18.84
497.077	19.22
497.426	19.6
497.776	19.96
498.125	20.29
498.475	20.65
498.824	20.97
499.174	21.3
499.523	21.65
499.872	21.99
500.221	22.38
500.571	22.8
500.92	23.23
501.269	23.63
501.618	24.01
501.967	24.43
502.316	24.84
502.665	25.22
503.014	25.59
503.363	25.94
503.711	26.32
504.06	26.64
504.409	26.96
504.758	27.27
505.106	27.58
505.455	27.9
505.803	28.15
506.152	28.41
506.5	28.66
506.849	28.89
507.197	29.13
507.546	29.38
507.894	29.61
508.242	29.81
508.59	30.01
508.939	30.23
509.287	30.41
509.635	30.59
509.983	30.77
510.331	30.94
510.679	31.06
511.027	31.17
511.375	31.33
511.723	31.5
512.07	31.65
512.418	31.8
512.766	31.94
513.114	32.11
513.461	32.26
513.809	32.39
514.156	32.49
514.504	32.63
514.851	32.73
515.199	32.82
515.546	32.92
515.893	33
516.241	33.1
516.588	33.18
516.935	33.24
517.282	33.28
517.63	33.33
517.977	33.4
518.324	33.48
518.671	33.55
519.018	33.59
519.365	33.61
519.711	33.65
520.058	33.67
520.405	33.7
520.752	33.75
521.099	33.81
521.445	33.88
521.792	33.94
522.138	33.99
522.485	34.06
522.832	34.12
523.178	34.18
523.524	34.23
523.871	34.29
524.217	34.32
524.563	34.38
524.91	34.44
525.256	34.49
525.602	34.53
525.948	34.55
526.294	34.57
526.64	34.58
526.986	34.59
527.332	34.61
527.678	34.62
528.024	34.61
528.37	34.61
528.716	34.62
529.061	34.62
529.407	34.64
529.753	34.65
530.098	34.67
530.444	34.67
530.789	34.67
531.135	34.68
531.48	34.72
531.826	34.73
532.171	34.75
532.516	34.78
532.862	34.79
533.207	34.81
533.552	34.83
533.897	34.86
534.242	34.91
534.587	34.92
534.932	34.95
535.277	34.96
535.622	34.98
535.967	35.02
536.312	35.03
536.657	35.06
537.001	35.08
537.346	35.12
537.691	35.15
538.035	35.16
538.38	35.17
538.724	35.14
539.069	35.15
539.413	35.12
539.758	35.12
540.102	35.15
540.446	35.16
540.791	35.17
541.135	35.2
541.479	35.19
541.823	35.22
542.167	35.22
542.512	35.24
542.856	35.23
543.2	35.22
543.543	35.22
543.887	35.22
544.231	35.24
544.575	35.25
544.919	35.26
545.262	35.3
545.606	35.31
545.95	35.32
546.293	35.33
546.637	35.38
546.98	35.4
547.324	35.42
547.667	35.44
548.011	35.43
548.354	35.42
548.697	35.43
549.04	35.43
549.384	35.44
549.727	35.44
550.07	35.49
550.413	35.49
550.756	35.51
551.099	35.52
551.442	35.49
551.785	35.52
552.128	35.53
552.47	35.47
552.813	35.46
553.156	35.47
553.499	35.49
553.841	35.46
554.184	35.41
554.526	35.39
554.869	35.37
555.211	35.38
555.554	35.34
555.896	35.32
556.238	35.32
556.581	35.31
556.923	35.28
557.265	35.25
557.607	35.27
557.949	35.24
558.291	35.19
558.633	35.18
558.975	35.12
559.317	35.11
559.659	35.12
560.001	35.12
560.343	35.12
560.685	35.09
561.026	35.08
561.368	35.09
561.71	35
562.051	34.97
562.393	34.97
562.734	34.95
563.076	34.94
563.417	34.88
563.759	34.85
564.1	34.85
564.441	34.85
564.782	34.81
565.124	34.8
565.465	34.81
565.806	34.78
566.147	34.77
566.488	34.7
566.829	34.72
567.17	34.7
567.511	34.65
567.851	34.63
568.192	34.61
568.533	34.57
568.874	34.59
569.214	34.59
569.555	34.57
569.895	34.57
570.236	34.53
570.576	34.54
570.917	34.54
571.257	34.53
571.598	34.5
571.938	34.46
572.278	34.46
572.618	34.47
572.959	34.45
573.299	34.43
573.639	34.46
573.979	34.42
574.319	34.39
574.659	34.38
574.999	34.37
575.339	34.32
575.678	34.32
576.018	34.32
576.358	34.28
576.698	34.27
577.037	34.23
577.377	34.18
577.716	34.13
578.056	34.09
578.395	34.07
578.735	34.08
579.074	34.05
579.413	34.03
579.753	33.98
580.092	33.99
580.431	33.95
580.77	33.94
581.109	33.95
581.448	33.95
581.787	33.9
582.126	33.86
582.465	33.9
582.804	33.87
583.143	33.85
583.482	33.84
583.82	33.8
584.159	33.77
584.498	33.75
584.836	33.75
585.175	33.74
585.514	33.7
585.852	33.67
586.19	33.64
586.529	33.66
586.867	33.67
587.205	33.67
587.544	33.71
587.882	33.66
588.22	33.65
588.558	33.62
588.896	33.64
589.234	33.64
589.572	33.61
589.91	33.62
590.248	33.62
590.586	33.6
590.924	33.6
591.262	33.62
591.599	33.64
591.937	33.65
592.275	33.64
592.612	33.69
592.95	33.65
593.287	33.69
593.625	33.62
593.962	33.61
594.299	33.62
594.637	33.66
594.974	33.64
595.311	33.63
595.648	33.66
595.985	33.64
596.322	33.64
596.659	33.65
596.996	33.66
597.333	33.66
597.67	33.63
598.007	33.6
598.344	33.58
598.681	33.57
599.017	33.53
599.354	33.55
599.691	33.48
600.027	33.49
600.364	33.5
600.7	33.52
601.037	33.54
601.373	33.52
601.71	33.5
602.046	33.54
602.382	33.53
602.718	33.51
603.054	33.52
603.391	33.52
603.727	33.52
604.063	33.5
604.399	33.47
604.735	33.48
605.071	33.51
605.406	33.51
605.742	33.5
606.078	33.53
606.414	33.52
606.749	33.57
607.085	33.56
607.421	33.57
607.756	33.56
608.092	33.52
608.427	33.49
608.762	33.45
609.098	33.4
609.433	33.41
609.768	33.39
610.104	33.37
610.439	33.35
610.774	33.32
611.109	33.33
611.444	33.33
611.779	33.34
612.114	33.32
612.449	33.31
612.784	33.29
613.118	33.25
613.453	33.2
613.788	33.11
614.123	33.05
614.457	32.99
614.792	32.94
615.126	32.94
615.461	32.91
615.795	32.87
616.13	32.83
616.464	32.79
616.798	32.76
617.132	32.76
617.467	32.78
617.801	32.77
618.135	32.76
618.469	32.74
618.803	32.74
619.137	32.69
619.471	32.68
619.805	32.71
620.139	32.68
620.472	32.72
620.806	32.74
621.14	32.7
621.473	32.69
621.807	32.71
622.141	32.7
622.474	32.7
622.808	32.72
623.141	32.74
623.474	32.78
623.808	32.87
624.141	32.93
624.474	32.92
624.807	32.91
625.141	32.85
625.474	32.88
625.807	32.88
626.14	32.9
626.473	32.93
626.806	32.92
627.138	33
627.471	32.95
627.804	33
628.137	33.08
628.469	33.07
628.802	33.02
629.135	33.02
629.467	33.03
629.8	33.03
630.132	33.04
630.465	33
630.797	32.93
631.129	32.86
631.461	32.87
631.794	32.87
632.126	32.9
632.458	32.88
632.79	32.89
633.122	32.9
633.454	32.92
633.786	32.93
634.118	32.86
634.45	32.86
634.781	32.76
635.113	32.71
635.445	32.72
635.777	32.8
636.108	32.77
636.44	32.75
636.771	32.72
637.103	32.64
637.434	32.63
637.765	32.61
638.097	32.55
638.428	32.52
638.759	32.5
639.09	32.51
639.422	32.49
639.753	32.46
640.084	32.48
640.415	32.44
640.746	32.39
641.077	32.41
641.407	32.46
641.738	32.5
642.069	32.55
642.4	32.52
642.73	32.5
643.061	32.55
