Data from pcis_p_h4_p6_Reflection_3.txt Node
Date: Wed Jul 12 18:07:37 ART 2017
User: rodoncho
Spectrometer: USB2E3644
Trigger mode: 4
Integration Time (sec): 6.000000E-2
Scans to average: 10
Electric dark correction enabled: true
Nonlinearity correction enabled: false
Boxcar width: 10
XAxis mode: Wavelengths
Number of Pixels in Spectrum: 2048
>>>>>Begin Spectral Data<<<<<
178.315	53.81
178.696	76.56
179.076	84.14
179.457	104.89
179.838	158.59
180.218	-273.47
180.599	-35.81
180.979	57.78
181.36	3175
181.74	-591.3
182.121	-133.82
182.501	147.83
182.881	215.16
183.262	487.74
183.642	-287.31
184.022	-70.57
184.402	-7.77
184.783	33.08
185.163	45.14
185.543	73.23
185.923	97.52
186.303	105.62
186.683	99.73
187.063	106
187.443	108
187.823	120.1
188.203	134.41
188.583	128.97
188.963	123.98
189.343	124.57
189.723	127.12
190.102	132.04
190.482	137.53
190.862	140.9
191.242	143.92
191.621	142.62
192.001	136.88
192.38	135.45
192.76	138.34
193.14	136.9
193.519	132.95
193.898	128.7
194.278	126.85
194.657	131.42
195.037	132.04
195.416	133.66
195.795	131.58
196.175	127.33
196.554	126.12
196.933	124.34
197.312	125.43
197.692	123.86
198.071	121.57
198.45	121.56
198.829	124.99
199.208	124.35
199.587	125.19
199.966	125.38
200.345	125.29
200.724	123.68
201.103	122.7
201.482	121.87
201.86	120.41
202.239	118.87
202.618	119.01
202.997	119.33
203.375	119.17
203.754	118.3
204.133	118.62
204.511	118.44
204.89	118.17
205.269	117.66
205.647	118.73
206.026	120.17
206.404	119.49
206.782	116.12
207.161	114.63
207.539	113.13
207.918	112.66
208.296	113.46
208.674	113.58
209.052	113.72
209.431	112.55
209.809	113.41
210.187	114.11
210.565	112.27
210.943	111.4
211.321	111.57
211.699	110.92
212.077	110.8
212.455	111.1
212.833	112.63
213.211	112.61
213.589	112.53
213.967	110.2
214.345	109.07
214.722	109.12
215.1	109.23
215.478	110.48
215.855	111.02
216.233	109.76
216.611	109.26
216.988	110.64
217.366	111.24
217.743	110.64
218.121	110.07
218.498	110.02
218.876	109.79
219.253	110.06
219.631	109.72
220.008	108.57
220.385	108.78
220.762	107.83
221.14	106.96
221.517	106.79
221.894	107.76
222.271	109.15
222.648	108.87
223.025	109.73
223.402	110.09
223.78	110.47
224.157	111.2
224.533	112.05
224.91	110.92
225.287	110.73
225.664	111.46
226.041	110.99
226.418	112.54
226.795	112.84
227.171	111.47
227.548	112.91
227.925	114.77
228.301	114.32
228.678	114.76
229.055	116.31
229.431	118.1
229.808	119.71
230.184	119.43
230.561	119.75
230.937	118.54
231.313	117.91
231.69	118.43
232.066	118.49
232.442	119.34
232.819	119.44
233.195	120.07
233.571	119.34
233.947	119.31
234.323	117.31
234.699	117.59
235.075	118.37
235.451	118.67
235.827	119.23
236.203	120.58
236.579	122.26
236.955	123.01
237.331	123.46
237.707	124.5
238.083	127.41
238.459	132.14
238.834	139.93
239.21	146.01
239.586	149.59
239.961	151.25
240.337	152.55
240.713	154.63
241.088	158.33
241.464	162.7
241.839	170.43
242.215	184.16
242.59	197.08
242.965	234.27
243.341	309.78
243.716	448.08
244.091	775.13
244.467	1603.71
244.842	16123.21
245.217	-3003.69
245.592	-2195.87
245.967	-1636.18
246.343	-1810.69
246.718	-1890.04
247.093	-1537.46
247.468	-1255.57
247.843	-947.77
248.218	-748.66
248.593	-578.15
248.967	-472.4
249.342	-434.64
249.717	-423.56
250.092	-443.96
250.467	-496.05
250.841	-698.74
251.216	-1584.11
251.591	8720.91
251.965	1284.56
252.34	825.04
252.714	654.11
253.089	581.03
253.463	570.15
253.838	583.53
254.212	650.07
254.587	713.99
254.961	827.04
255.335	1652.33
255.71	-2954.79
256.084	-549.04
256.458	-299.97
256.832	-211.14
257.206	-174.7
257.581	-156.42
257.955	-147.75
258.329	-136.45
258.703	-126.35
259.077	-118.98
259.451	-112.66
259.825	-106.02
260.199	-102.44
260.572	-99.8
260.946	-96.77
261.32	-94.28
261.694	-90.69
262.068	-89.66
262.441	-88.29
262.815	-86.62
263.189	-87.03
263.562	-92.09
263.936	-106.77
264.309	-127.58
264.683	-151.26
265.056	-166.48
265.43	-176.11
265.803	-174.51
266.176	-167.54
266.55	-167.72
266.923	-166.87
267.296	-162.68
267.67	-155.1
268.043	-141.86
268.416	-129.16
268.789	-116.66
269.162	-105.22
269.535	-96.77
269.908	-91.57
270.281	-88.61
270.654	-87.55
271.027	-89.69
271.4	-91.35
271.773	-90.23
272.146	-87.79
272.519	-83.32
272.891	-80.49
273.264	-79.45
273.637	-77.81
274.01	-79.31
274.382	-77.83
274.755	-76.91
275.127	-76.84
275.5	-78.39
275.872	-78.74
276.245	-78.68
276.617	-80.51
276.99	-84.32
277.362	-87.38
277.734	-88.28
278.107	-87.59
278.479	-84.14
278.851	-80.08
279.223	-76.29
279.596	-74.32
279.968	-73.79
280.34	-74.66
280.712	-72.97
281.084	-69.06
281.456	-63.54
281.828	-58.41
282.2	-54.49
282.572	-51.12
282.944	-48.37
283.315	-46.65
283.687	-46.03
284.059	-46.44
284.431	-45.3
284.802	-43.9
285.174	-42.85
285.546	-41.77
285.917	-41.62
286.289	-41.38
286.66	-40.79
287.032	-40.68
287.403	-40.51
287.775	-39.94
288.146	-39.66
288.518	-39.57
288.889	-40.27
289.26	-41.99
289.632	-43.02
290.003	-44.36
290.374	-45.4
290.745	-46.18
291.116	-46.09
291.487	-45.18
291.858	-43.42
292.229	-43.28
292.6	-41.86
292.971	-40.61
293.342	-38.75
293.713	-36.71
294.084	-35.46
294.455	-34.58
294.826	-33.7
295.196	-33.52
295.567	-33.46
295.938	-32.7
296.308	-32.52
296.679	-31.35
297.05	-30.25
297.42	-29.5
297.791	-28.62
298.161	-27.92
298.532	-27.43
298.902	-26.75
299.272	-26.36
299.643	-25.65
300.013	-25.14
300.383	-24.99
300.754	-24.55
301.124	-24.64
301.494	-24.31
301.864	-23.98
302.234	-24.32
302.604	-24.19
302.974	-23.51
303.344	-23.07
303.714	-23.12
304.084	-22.57
304.454	-21.92
304.824	-21.21
305.194	-20.7
305.563	-19.98
305.933	-18.82
306.303	-17.72
306.673	-17.13
307.042	-16.46
307.412	-15.84
307.781	-14.55
308.151	-13.67
308.521	-13.32
308.89	-12.94
309.259	-12.6
309.629	-12.32
309.998	-12
310.368	-11.84
310.737	-11.84
311.106	-11.49
311.475	-10.95
311.845	-10.74
312.214	-10.79
312.583	-10.7
312.952	-10.54
313.321	-10.43
313.69	-10.59
314.059	-10.75
314.428	-10.62
314.797	-11.01
315.166	-11.79
315.535	-12.68
315.904	-13.21
316.272	-13.21
316.641	-13.1
317.01	-13.21
317.379	-13.23
317.747	-12.82
318.116	-12.61
318.484	-12.27
318.853	-11.77
319.221	-11.39
319.59	-11.29
319.958	-10.92
320.327	-10.92
320.695	-10.67
321.063	-10.4
321.432	-9.9
321.8	-9.68
322.168	-9.28
322.536	-8.39
322.905	-7.59
323.273	-7.03
323.641	-6.52
324.009	-6.54
324.377	-6.34
324.745	-6.14
325.113	-5.88
325.481	-5.51
325.849	-4.92
326.216	-4.51
326.584	-4.33
326.952	-4.05
327.32	-3.68
327.687	-3.36
328.055	-2.93
328.423	-2.87
328.79	-2.66
329.158	-2.45
329.525	-1.98
329.893	-1.74
330.26	-1.71
330.628	-1.73
330.995	-1.34
331.362	-1.2
331.73	-0.68
332.097	-0.4
332.464	-0.04
332.831	0.12
333.199	0.35
333.566	0.48
333.933	0.62
334.3	0.73
334.667	0.88
335.034	1.11
335.401	1.16
335.768	1.22
336.135	1.49
336.502	1.62
336.868	1.78
337.235	1.98
337.602	2.3
337.969	2.65
338.335	3.07
338.702	3.22
339.069	3.47
339.435	3.72
339.802	3.8
340.168	3.86
340.535	4.03
340.901	4.16
341.267	4.32
341.634	4.55
342	4.86
342.366	5.02
342.733	5.2
343.099	5.45
343.465	5.77
343.831	5.99
344.197	6.14
344.563	6.32
344.929	6.49
345.295	6.55
345.661	6.6
346.027	6.75
346.393	6.95
346.759	7
347.125	7.04
347.491	7.26
347.856	7.5
348.222	7.76
348.588	7.97
348.953	8.09
349.319	8.19
349.684	8.13
350.05	8.28
350.415	8.54
350.781	8.7
351.146	8.88
351.512	9.06
351.877	9.28
352.242	9.37
352.608	9.39
352.973	9.43
353.338	9.57
353.703	9.73
354.068	9.81
354.433	10.06
354.798	10.24
355.164	10.43
355.528	10.5
355.893	10.47
356.258	10.52
356.623	10.66
356.988	10.78
357.353	11.07
357.718	11.18
358.082	11.18
358.447	11.17
358.812	11.15
359.176	11.22
359.541	11.34
359.905	11.47
360.27	11.59
360.634	11.78
360.999	11.9
361.363	12.01
361.728	12.11
362.092	12.16
362.456	12.18
362.821	12.19
363.185	12.25
363.549	12.41
363.913	12.48
364.277	12.51
364.641	12.58
365.005	12.65
365.369	12.79
365.733	12.89
366.097	13.08
366.461	13.15
366.825	13.22
367.189	13.3
367.553	13.41
367.916	13.6
368.28	13.67
368.644	13.82
369.007	13.86
369.371	13.95
369.734	14.03
370.098	14.23
370.461	14.32
370.825	14.47
371.188	14.58
371.552	14.74
371.915	14.87
372.278	15.02
372.642	15.13
373.005	15.24
373.368	15.34
373.731	15.38
374.094	15.54
374.457	15.67
374.82	15.77
375.183	15.86
375.546	15.88
375.909	16.03
376.272	16.1
376.635	16.2
376.998	16.26
377.361	16.27
377.723	16.31
378.086	16.43
378.449	16.53
378.811	16.64
379.174	16.72
379.537	16.82
379.899	16.96
380.262	17.08
380.624	17.14
380.987	17.26
381.349	17.39
381.711	17.49
382.074	17.56
382.436	17.66
382.798	17.77
383.16	17.84
383.522	17.88
383.884	17.92
384.247	18.07
384.609	18.23
384.971	18.38
385.333	18.47
385.695	18.5
386.056	18.54
386.418	18.58
386.78	18.7
387.142	18.73
387.504	18.75
387.865	18.81
388.227	18.86
388.589	18.86
388.95	18.88
389.312	18.89
389.673	18.94
390.035	18.98
390.396	18.97
390.758	18.98
391.119	19.01
391.48	19.02
391.842	19.03
392.203	19.04
392.564	19.05
392.925	19.05
393.286	19.06
393.648	19.1
394.009	19.11
394.37	19.09
394.731	19.13
395.092	19.1
395.452	19.09
395.813	19.13
396.174	19.15
396.535	19.18
396.896	19.16
397.257	19.19
397.617	19.21
397.978	19.23
398.338	19.33
398.699	19.38
399.06	19.44
399.42	19.42
399.781	19.39
400.141	19.4
400.501	19.43
400.862	19.51
401.222	19.54
401.582	19.6
401.943	19.58
402.303	19.62
402.663	19.72
403.023	19.73
403.383	19.75
403.743	19.77
404.103	19.83
404.463	19.94
404.823	20
405.183	20.02
405.543	20.09
405.903	20.09
406.262	20.1
406.622	20.16
406.982	20.22
407.342	20.29
407.701	20.33
408.061	20.32
408.42	20.32
408.78	20.37
409.139	20.42
409.499	20.48
409.858	20.51
410.217	20.53
410.577	20.59
410.936	20.62
411.295	20.64
411.655	20.63
412.014	20.62
412.373	20.61
412.732	20.59
413.091	20.59
413.45	20.6
413.809	20.58
414.168	20.58
414.527	20.52
414.886	20.45
415.245	20.42
415.603	20.39
415.962	20.34
416.321	20.28
416.679	20.19
417.038	20.1
417.397	20.01
417.755	19.94
418.114	19.9
418.472	19.85
418.831	19.83
419.189	19.81
419.547	19.77
419.906	19.72
420.264	19.67
420.622	19.64
420.981	19.59
421.339	19.56
421.697	19.53
422.055	19.52
422.413	19.51
422.771	19.5
423.129	19.51
423.487	19.52
423.845	19.52
424.203	19.55
424.56	19.58
424.918	19.63
425.276	19.69
425.634	19.7
425.991	19.73
426.349	19.76
426.707	19.8
427.064	19.81
427.422	19.86
427.779	19.94
428.137	19.99
428.494	20.07
428.851	20.15
429.209	20.19
429.566	20.25
429.923	20.3
430.28	20.34
430.637	20.38
430.995	20.4
431.352	20.41
431.709	20.44
432.066	20.49
432.423	20.52
432.78	20.53
433.137	20.56
433.493	20.62
433.85	20.66
434.207	20.66
434.564	20.7
434.92	20.74
435.277	20.74
435.634	20.76
435.99	20.79
436.347	20.82
436.703	20.85
437.06	20.88
437.416	20.92
437.773	20.95
438.129	20.98
438.485	21.02
438.841	21.04
439.198	21.06
439.554	21.07
439.91	21.09
440.266	21.08
440.622	21.06
440.978	21.05
441.334	21.01
441.69	21
442.046	20.97
442.402	20.9
442.758	20.88
443.113	20.84
443.469	20.81
443.825	20.77
444.181	20.75
444.536	20.72
444.892	20.69
445.247	20.66
445.603	20.64
445.958	20.61
446.314	20.58
446.669	20.55
447.025	20.53
447.38	20.48
447.735	20.47
448.09	20.45
448.446	20.41
448.801	20.39
449.156	20.37
449.511	20.38
449.866	20.39
450.221	20.4
450.576	20.41
450.931	20.39
451.286	20.41
451.641	20.41
451.995	20.42
452.35	20.43
452.705	20.43
453.06	20.44
453.414	20.48
453.769	20.51
454.123	20.52
454.478	20.55
454.832	20.58
455.187	20.59
455.541	20.6
455.896	20.63
456.25	20.69
456.604	20.73
456.958	20.75
457.313	20.81
457.667	20.87
458.021	20.93
458.375	21.01
458.729	21.09
459.083	21.14
459.437	21.22
459.791	21.29
460.145	21.37
460.499	21.46
460.852	21.53
461.206	21.61
461.56	21.69
461.914	21.78
462.267	21.88
462.621	22.02
462.974	22.19
463.328	22.35
463.681	22.52
464.035	22.7
464.388	22.87
464.742	23.03
465.095	23.19
465.448	23.35
465.801	23.49
466.155	23.59
466.508	23.72
466.861	23.82
467.214	23.93
467.567	24.03
467.92	24.1
468.273	24.19
468.626	24.28
468.979	24.38
469.332	24.43
469.684	24.5
470.037	24.57
470.39	24.64
470.743	24.71
471.095	24.8
471.448	24.87
471.8	24.94
472.153	24.98
472.505	25
472.858	25
473.21	24.98
473.562	24.95
473.915	24.92
474.267	24.91
474.619	24.87
474.971	24.82
475.324	24.77
475.676	24.71
476.028	24.66
476.38	24.58
476.732	24.52
477.084	24.46
477.436	24.37
477.787	24.24
478.139	24.14
478.491	24.02
478.843	23.87
479.195	23.75
479.546	23.54
479.898	23.32
480.249	23.13
480.601	23.03
480.952	22.91
481.304	22.83
481.655	22.74
482.007	22.67
482.358	22.63
482.709	22.58
483.061	22.53
483.412	22.49
483.763	22.47
484.114	22.46
484.465	22.45
484.816	22.44
485.167	22.44
485.518	22.43
485.869	22.44
486.22	22.46
486.571	22.49
486.922	22.55
487.272	22.62
487.623	22.72
487.974	22.81
488.324	22.94
488.675	23.07
489.025	23.19
489.376	23.31
489.726	23.44
490.077	23.56
490.427	23.7
490.778	23.83
491.128	24.02
491.478	24.21
491.828	24.43
492.179	24.64
492.529	24.89
492.879	25.15
493.229	25.38
493.579	25.61
493.929	25.83
494.279	26.05
494.629	26.28
494.979	26.53
495.328	26.85
495.678	27.23
496.028	27.58
496.378	27.91
496.727	28.23
497.077	28.52
497.426	28.78
497.776	29.06
498.125	29.3
498.475	29.52
498.824	29.75
499.174	29.96
499.523	30.18
499.872	30.41
500.221	30.67
500.571	30.91
500.92	31.16
501.269	31.39
501.618	31.6
501.967	31.83
502.316	32.09
502.665	32.32
503.014	32.49
503.363	32.69
503.711	32.9
504.06	33.07
504.409	33.23
504.758	33.42
505.106	33.56
505.455	33.71
505.803	33.85
506.152	33.98
506.5	34.09
506.849	34.21
507.197	34.32
507.546	34.39
507.894	34.5
508.242	34.6
508.59	34.68
508.939	34.77
509.287	34.88
509.635	34.96
509.983	35.04
510.331	35.16
510.679	35.24
511.027	35.31
511.375	35.42
511.723	35.5
512.07	35.6
512.418	35.69
512.766	35.8
513.114	35.88
513.461	35.98
513.809	36.08
514.156	36.16
514.504	36.22
514.851	36.31
515.199	36.37
515.546	36.43
515.893	36.5
516.241	36.56
516.588	36.62
516.935	36.7
517.282	36.76
517.63	36.81
517.977	36.83
518.324	36.88
518.671	36.94
519.018	37
519.365	37.02
519.711	37.07
520.058	37.1
520.405	37.14
520.752	37.16
521.099	37.2
521.445	37.25
521.792	37.32
522.138	37.35
522.485	37.43
522.832	37.49
523.178	37.54
523.524	37.6
523.871	37.64
524.217	37.67
524.563	37.71
524.91	37.74
525.256	37.8
525.602	37.88
525.948	37.9
526.294	37.91
526.64	37.92
526.986	37.93
527.332	37.95
527.678	37.96
528.024	37.97
528.37	38
528.716	38.02
529.061	38.05
529.407	38.07
529.753	38.11
530.098	38.13
530.444	38.14
530.789	38.18
531.135	38.21
531.48	38.23
531.826	38.26
532.171	38.3
532.516	38.35
532.862	38.34
533.207	38.38
533.552	38.4
533.897	38.45
534.242	38.49
534.587	38.53
534.932	38.57
535.277	38.63
535.622	38.67
535.967	38.71
536.312	38.74
536.657	38.82
537.001	38.86
537.346	38.94
537.691	39.03
538.035	39.07
538.38	39.1
538.724	39.15
539.069	39.17
539.413	39.2
539.758	39.24
540.102	39.29
540.446	39.34
540.791	39.39
541.135	39.43
541.479	39.45
541.823	39.49
542.167	39.52
542.512	39.52
542.856	39.51
543.2	39.52
543.543	39.54
543.887	39.54
544.231	39.58
544.575	39.61
544.919	39.64
545.262	39.7
545.606	39.77
545.95	39.82
546.293	39.87
546.637	39.93
546.98	40
547.324	40.04
547.667	40.08
548.011	40.12
548.354	40.16
548.697	40.25
549.04	40.31
549.384	40.37
549.727	40.42
550.07	40.5
550.413	40.54
550.756	40.62
551.099	40.73
551.442	40.76
551.785	40.79
552.128	40.85
552.47	40.85
552.813	40.84
553.156	40.85
553.499	40.91
553.841	40.95
554.184	40.92
554.526	40.96
554.869	40.95
555.211	40.98
555.554	40.96
555.896	40.92
556.238	40.92
556.581	40.91
556.923	40.94
557.265	40.97
557.607	41.03
557.949	41.04
558.291	41.07
558.633	41.09
558.975	41.11
559.317	41.15
559.659	41.19
560.001	41.24
560.343	41.25
560.685	41.23
561.026	41.24
561.368	41.27
561.71	41.27
562.051	41.33
562.393	41.32
562.734	41.39
563.076	41.44
563.417	41.45
563.759	41.43
564.1	41.4
564.441	41.41
564.782	41.38
565.124	41.37
565.465	41.36
565.806	41.34
566.147	41.37
566.488	41.36
566.829	41.35
567.17	41.33
567.511	41.34
567.851	41.35
568.192	41.33
568.533	41.32
568.874	41.34
569.214	41.32
569.555	41.35
569.895	41.35
570.236	41.35
570.576	41.39
570.917	41.43
571.257	41.48
571.598	41.47
571.938	41.48
572.278	41.51
572.618	41.48
572.959	41.5
573.299	41.46
573.639	41.46
573.979	41.47
574.319	41.49
574.659	41.48
574.999	41.49
575.339	41.5
575.678	41.55
576.018	41.55
576.358	41.55
576.698	41.54
577.037	41.54
577.377	41.54
577.716	41.55
578.056	41.52
578.395	41.5
578.735	41.55
579.074	41.55
579.413	41.52
579.753	41.57
580.092	41.6
580.431	41.65
580.77	41.7
581.109	41.73
581.448	41.74
581.787	41.75
582.126	41.78
582.465	41.83
582.804	41.8
583.143	41.81
583.482	41.83
583.82	41.85
584.159	41.83
584.498	41.82
584.836	41.8
585.175	41.84
585.514	41.85
585.852	41.79
586.19	41.81
586.529	41.83
586.867	41.78
587.205	41.75
587.544	41.74
587.882	41.73
588.22	41.75
588.558	41.76
588.896	41.77
589.234	41.74
589.572	41.68
589.91	41.68
590.248	41.65
590.586	41.67
590.924	41.68
591.262	41.71
591.599	41.72
591.937	41.73
592.275	41.78
592.612	41.81
592.95	41.83
593.287	41.89
593.625	41.93
593.962	41.98
594.299	42
594.637	42.03
594.974	42.06
595.311	42.04
595.648	42.06
595.985	42.07
596.322	42.08
596.659	42.14
596.996	42.14
597.333	42.17
597.67	42.16
598.007	42.16
598.344	42.16
598.681	42.17
599.017	42.19
599.354	42.18
599.691	42.15
600.027	42.17
600.364	42.14
600.7	42.15
601.037	42.14
601.373	42.15
601.71	42.18
602.046	42.19
602.382	42.21
602.718	42.19
603.054	42.21
603.391	42.22
603.727	42.2
604.063	42.18
604.399	42.19
604.735	42.23
605.071	42.21
605.406	42.22
605.742	42.24
606.078	42.24
606.414	42.21
606.749	42.25
607.085	42.26
607.421	42.25
607.756	42.22
608.092	42.23
608.427	42.18
608.762	42.16
609.098	42.09
609.433	42.08
609.768	42.08
610.104	42.08
610.439	42.08
610.774	42.08
611.109	42.08
611.444	42.08
611.779	42.05
612.114	42.08
612.449	42.04
612.784	41.98
613.118	41.93
613.453	41.91
613.788	41.86
614.123	41.81
614.457	41.8
614.792	41.79
615.126	41.79
615.461	41.82
615.795	41.82
616.13	41.84
616.464	41.84
616.798	41.86
617.132	41.85
617.467	41.85
617.801	41.83
618.135	41.87
618.469	41.87
618.803	41.85
619.137	41.84
619.471	41.83
619.805	41.85
620.139	41.88
620.472	41.92
620.806	41.92
621.14	41.96
621.473	41.95
621.807	41.94
622.141	41.88
622.474	41.91
622.808	41.89
623.141	41.92
623.474	41.92
623.808	41.91
624.141	41.9
624.474	41.88
624.807	41.97
625.141	42.02
625.474	41.99
625.807	41.97
626.14	42.03
626.473	42.07
626.806	42.06
627.138	42.05
627.471	42.04
627.804	42.01
628.137	41.98
628.469	42.06
628.802	42.06
629.135	42.1
629.467	42.1
629.8	42.08
630.132	42.02
630.465	42.03
630.797	42
631.129	41.97
631.461	42
631.794	41.91
632.126	41.85
632.458	41.9
632.79	41.91
633.122	41.9
633.454	41.97
633.786	42.01
634.118	42.02
634.45	41.99
634.781	42.04
635.113	42.05
635.445	42
635.777	42
636.108	42
636.44	41.97
636.771	41.93
637.103	42
637.434	42.01
637.765	42.08
638.097	42.09
638.428	42.06
638.759	42.1
639.09	42.08
639.422	42.05
639.753	42.02
640.084	42.02
640.415	41.89
640.746	41.93
641.077	41.93
641.407	41.94
641.738	41.97
642.069	42
642.4	42.01
642.73	42.01
643.061	42.01
643.392	42.08
643.722	42.18
