Data from pcis_p_h3_p4_Reflection_4.txt Node
Date: Wed Jul 12 17:54:16 ART 2017
User: rodoncho
Spectrometer: USB2E3644
Trigger mode: 4
Integration Time (sec): 6.000000E-2
Scans to average: 10
Electric dark correction enabled: true
Nonlinearity correction enabled: false
Boxcar width: 10
XAxis mode: Wavelengths
Number of Pixels in Spectrum: 2048
>>>>>Begin Spectral Data<<<<<
178.315	-16.37
178.696	-18.82
179.076	9.34
179.457	42.91
179.838	34.65
180.218	-14.77
180.599	-1342.86
180.979	-257.14
181.36	29.2
181.74	33.7
182.121	136.84
182.501	99.82
182.881	77.49
183.262	102.39
183.642	-148.39
184.022	64.09
184.402	68.17
184.783	72.15
185.163	67.41
185.543	73.06
185.923	77.04
186.303	78.64
186.683	78.8
187.063	85.16
187.443	88.79
187.823	91.13
188.203	92.46
188.583	93.97
188.963	96.12
189.343	91.22
189.723	92.1
190.102	91.87
190.482	91.17
190.862	87.86
191.242	90.19
191.621	91.78
192.001	91.86
192.38	93.58
192.76	94.75
193.14	96
193.519	96.49
193.898	99.71
194.278	99.88
194.657	97.46
195.037	97.68
195.416	98.55
195.795	98.2
196.175	99.5
196.554	99.52
196.933	101.25
197.312	104.6
197.692	104.41
198.071	106.37
198.45	108.68
198.829	110.25
199.208	112.28
199.587	113.82
199.966	114.01
200.345	115.05
200.724	114.32
201.103	114.65
201.482	114.36
201.86	111.51
202.239	111.62
202.618	111.87
202.997	111.28
203.375	111.17
203.754	110.94
204.133	108.89
204.511	108.6
204.89	108.42
205.269	107
205.647	107.4
206.026	106.99
206.404	106.31
206.782	105.96
207.161	103.86
207.539	102.6
207.918	101.72
208.296	100.85
208.674	101.43
209.052	101.59
209.431	102.05
209.809	101.62
210.187	101.12
210.565	102.31
210.943	104.25
211.321	104.87
211.699	105.06
212.077	103.8
212.455	103.04
212.833	102.16
213.211	102.05
213.589	102.38
213.967	103.44
214.345	103.81
214.722	102.85
215.1	102.53
215.478	100.96
215.855	101.33
216.233	102.15
216.611	101.25
216.988	100.88
217.366	100.6
217.743	100.45
218.121	99.65
218.498	99.15
218.876	96.1
219.253	96.08
219.631	96.69
220.008	98.23
220.385	99
220.762	99.72
221.14	101.19
221.517	100.45
221.894	100.01
222.271	99.01
222.648	98.99
223.025	100.23
223.402	101.13
223.78	100.98
224.157	99.79
224.533	101.2
224.91	102.75
225.287	102.57
225.664	104
226.041	105.36
226.418	104.84
226.795	106.94
227.171	107.02
227.548	107.87
227.925	108.66
228.301	110.91
228.678	111.02
229.055	110.07
229.431	110.81
229.808	110.26
230.184	111.07
230.561	112.5
230.937	111.42
231.313	111.93
231.69	111.63
232.066	112.7
232.442	113.34
232.819	113.21
233.195	113.96
233.571	113.41
233.947	113.77
234.323	114.45
234.699	113.46
235.075	113.05
235.451	112.31
235.827	112.37
236.203	111.53
236.579	111.97
236.955	112.13
237.331	113.01
237.707	115.79
238.083	118.54
238.459	122.34
238.834	129.02
239.21	134.25
239.586	139.86
239.961	143.68
240.337	144.4
240.713	145.69
241.088	147.25
241.464	151.03
241.839	157.59
242.215	166.61
242.59	182.12
242.965	209.57
243.341	264.89
243.716	358.68
244.091	526.71
244.467	800
244.842	1770.89
245.217	-17528.3
245.592	-4351.63
245.967	-3189.08
246.343	-4730.96
246.718	-11272.29
247.093	-19740.43
247.468	-19765.96
247.843	-3907.11
248.218	-1610.33
248.593	-929.87
248.967	-645.17
249.342	-556.57
249.717	-575.29
250.092	-616.81
250.467	-720.62
250.841	-1073.19
251.216	-8794.39
251.591	1383.21
251.965	698.75
252.34	540.96
252.714	466.05
253.089	387.18
253.463	375.52
253.838	380.26
254.212	405.65
254.587	445.39
254.961	522.37
255.335	779.73
255.71	2147.05
256.084	-1182.7
256.458	-433.53
256.832	-285.73
257.206	-226.64
257.581	-197.93
257.955	-183.43
258.329	-174.54
258.703	-166.66
259.077	-158.4
259.451	-150.73
259.825	-142.67
260.199	-135.87
260.572	-131.07
260.946	-124.17
261.32	-120.22
261.694	-115.84
262.068	-112.27
262.441	-109.71
262.815	-106.93
263.189	-107.26
263.562	-112.71
263.936	-128.61
264.309	-152.88
264.683	-181.59
265.056	-203.52
265.43	-213.07
265.803	-207.73
266.176	-195.44
266.55	-189.74
266.923	-181.37
267.296	-172.36
267.67	-163.49
268.043	-153.2
268.416	-142.18
268.789	-129.21
269.162	-116.87
269.535	-109.14
269.908	-104.64
270.281	-102.09
270.654	-103.18
271.027	-105.38
271.4	-107.78
271.773	-108.47
272.146	-107.62
272.519	-101.37
272.891	-97.73
273.264	-96.25
273.637	-95.47
274.01	-96.51
274.382	-95.85
274.755	-94.45
275.127	-93.64
275.5	-94.11
275.872	-93.3
276.245	-93.53
276.617	-96.68
276.99	-102.68
277.362	-105.97
277.734	-105.07
278.107	-100.53
278.479	-95.44
278.851	-91.22
279.223	-86.71
279.596	-84.63
279.968	-83.55
280.34	-84.77
280.712	-83.2
281.084	-77.74
281.456	-71.76
281.828	-66.72
282.2	-61.83
282.572	-58.39
282.944	-56.02
283.315	-54.55
283.687	-54
284.059	-52.96
284.431	-52.11
284.802	-50.77
285.174	-49.15
285.546	-47.68
285.917	-47.53
286.289	-46.1
286.66	-44.53
287.032	-44.41
287.403	-43.36
287.775	-42.77
288.146	-42.08
288.518	-41.84
288.889	-42.53
289.26	-43.88
289.632	-44.46
290.003	-45.77
290.374	-47.2
290.745	-47.76
291.116	-47.23
291.487	-46.49
291.858	-46.24
292.229	-45.38
292.6	-43.34
292.971	-42.33
293.342	-41.04
293.713	-39.25
294.084	-38.53
294.455	-38.21
294.826	-37.54
295.196	-37.72
295.567	-37.51
295.938	-37.3
296.308	-36.71
296.679	-35.32
297.05	-34.33
297.42	-33.86
297.791	-32.78
298.161	-31.61
298.532	-30.81
298.902	-30.47
299.272	-29.75
299.643	-28.94
300.013	-28.25
300.383	-28.37
300.754	-27.88
301.124	-27.99
301.494	-27.9
301.864	-27.8
302.234	-27.58
302.604	-27.47
302.974	-27.05
303.344	-27.27
303.714	-27.17
304.084	-26.9
304.454	-26.9
304.824	-26.09
305.194	-25.32
305.563	-24.63
305.933	-23.25
306.303	-21.96
306.673	-21.01
307.042	-20.31
307.412	-19.71
307.781	-18.9
308.151	-17.92
308.521	-17.43
308.89	-17.1
309.259	-16.8
309.629	-16.42
309.998	-16.1
310.368	-15.95
310.737	-15.81
311.106	-15.06
311.475	-14.27
311.845	-13.86
312.214	-13.4
312.583	-13.11
312.952	-12.87
313.321	-12.8
313.69	-13.07
314.059	-13.45
314.428	-13.68
314.797	-13.92
315.166	-14.4
315.535	-14.93
315.904	-15.44
316.272	-15.84
316.641	-15.97
317.01	-16.04
317.379	-16.16
317.747	-15.97
318.116	-15.56
318.484	-15.03
318.853	-14.76
319.221	-14.62
319.59	-14.48
319.958	-14.46
320.327	-14.47
320.695	-14.02
321.063	-13.64
321.432	-13.15
321.8	-12.78
322.168	-11.83
322.536	-10.99
322.905	-9.95
323.273	-9.3
323.641	-8.77
324.009	-8.41
324.377	-7.92
324.745	-7.69
325.113	-7.42
325.481	-7.01
325.849	-6.45
326.216	-5.88
326.584	-5.46
326.952	-5.2
327.32	-4.72
327.687	-4.28
328.055	-3.83
328.423	-3.67
328.79	-3.63
329.158	-3.63
329.525	-3.17
329.893	-3
330.26	-2.75
330.628	-2.43
330.995	-2.16
331.362	-1.56
331.73	-0.98
332.097	-0.61
332.464	-0.25
332.831	0.04
333.199	0.29
333.566	0.62
333.933	0.61
334.3	0.58
334.667	0.83
335.034	0.97
335.401	1.23
335.768	1.46
336.135	1.87
336.502	2.08
336.868	2.38
337.235	2.58
337.602	2.77
337.969	2.93
338.335	3.13
338.702	3.35
339.069	3.55
339.435	3.76
339.802	3.9
340.168	4.19
340.535	4.54
340.901	4.72
341.267	4.8
341.634	5.14
342	5.46
342.366	5.63
342.733	5.87
343.099	6.05
343.465	6.3
343.831	6.49
344.197	6.77
344.563	6.87
344.929	6.96
345.295	7.2
345.661	7.38
346.027	7.35
346.393	7.47
346.759	7.41
347.125	7.34
347.491	7.45
347.856	7.53
348.222	7.5
348.588	7.58
348.953	7.72
349.319	7.82
349.684	7.94
350.05	8.14
350.415	8.34
350.781	8.48
351.146	8.66
351.512	8.69
351.877	8.88
352.242	9.19
352.608	9.34
352.973	9.47
353.338	9.63
353.703	9.82
354.068	10
354.433	10.21
354.798	10.5
355.164	10.57
355.528	10.63
355.893	10.8
356.258	10.88
356.623	11
356.988	11.16
357.353	11.4
357.718	11.52
358.082	11.62
358.447	11.61
358.812	11.66
359.176	11.72
359.541	11.75
359.905	11.76
360.27	11.79
360.634	11.77
360.999	11.76
361.363	11.87
361.728	11.96
362.092	12
362.456	11.92
362.821	11.99
363.185	12.11
363.549	12.2
363.913	12.33
364.277	12.4
364.641	12.43
365.005	12.45
365.369	12.46
365.733	12.53
366.097	12.79
366.461	12.8
366.825	12.85
367.189	12.99
367.553	13.12
367.916	13.32
368.28	13.49
368.644	13.64
369.007	13.82
369.371	13.91
369.734	14.01
370.098	14.23
370.461	14.35
370.825	14.52
371.188	14.64
371.552	14.75
371.915	14.85
372.278	15.02
372.642	15.15
373.005	15.3
373.368	15.36
373.731	15.37
374.094	15.49
374.457	15.63
374.82	15.67
375.183	15.67
375.546	15.71
375.909	15.77
376.272	15.8
376.635	15.78
376.998	15.77
377.361	15.84
377.723	15.87
378.086	15.98
378.449	15.95
378.811	16.04
379.174	16.11
379.537	16.2
379.899	16.25
380.262	16.3
380.624	16.29
380.987	16.29
381.349	16.32
381.711	16.32
382.074	16.38
382.436	16.48
382.798	16.57
383.16	16.61
383.522	16.71
383.884	16.8
384.247	16.95
384.609	17.04
384.971	17.07
385.333	17.09
385.695	17.16
386.056	17.23
386.418	17.2
386.78	17.24
387.142	17.23
387.504	17.21
387.865	17.13
388.227	17.18
388.589	17.25
388.95	17.29
389.312	17.32
389.673	17.37
390.035	17.31
390.396	17.36
390.758	17.35
391.119	17.28
391.48	17.31
391.842	17.31
392.203	17.28
392.564	17.29
392.925	17.31
393.286	17.25
393.648	17.22
394.009	17.21
394.37	17.18
394.731	17.17
395.092	17.15
395.452	17.2
395.813	17.2
396.174	17.17
396.535	17.12
396.896	17.11
397.257	17.07
397.617	17.13
397.978	17.09
398.338	17.09
398.699	17.15
399.06	17.13
399.42	17.05
399.781	17.04
400.141	17.02
400.501	16.97
400.862	16.98
401.222	17.02
401.582	17.05
401.943	17.03
402.303	17.02
402.663	17.04
403.023	17.03
403.383	17.02
403.743	17.05
404.103	17.12
404.463	17.14
404.823	17.15
405.183	17.14
405.543	17.16
405.903	17.22
406.262	17.22
406.622	17.24
406.982	17.27
407.342	17.3
407.701	17.32
408.061	17.35
408.42	17.36
408.78	17.34
409.139	17.34
409.499	17.36
409.858	17.4
410.217	17.43
410.577	17.41
410.936	17.42
411.295	17.42
411.655	17.36
412.014	17.31
412.373	17.27
412.732	17.24
413.091	17.22
413.45	17.15
413.809	17.07
414.168	16.98
414.527	16.9
414.886	16.82
415.245	16.72
415.603	16.65
415.962	16.54
416.321	16.44
416.679	16.33
417.038	16.23
417.397	16.1
417.755	15.99
418.114	15.92
418.472	15.84
418.831	15.76
419.189	15.69
419.547	15.64
419.906	15.57
420.264	15.48
420.622	15.39
420.981	15.32
421.339	15.26
421.697	15.19
422.055	15.14
422.413	15.09
422.771	15.06
423.129	15.02
423.487	15.01
423.845	15
424.203	15
424.56	14.99
424.918	15.01
425.276	15.04
425.634	15.05
425.991	15.04
426.349	15.04
426.707	15.07
427.064	15.09
427.422	15.11
427.779	15.16
428.137	15.2
428.494	15.25
428.851	15.3
429.209	15.36
429.566	15.4
429.923	15.43
430.28	15.45
430.637	15.49
430.995	15.51
431.352	15.53
431.709	15.58
432.066	15.64
432.423	15.64
432.78	15.66
433.137	15.69
433.493	15.74
433.85	15.8
434.207	15.78
434.564	15.79
434.92	15.81
435.277	15.82
435.634	15.83
435.99	15.83
436.347	15.86
436.703	15.86
437.06	15.87
437.416	15.89
437.773	15.91
438.129	15.89
438.485	15.9
438.841	15.89
439.198	15.87
439.554	15.83
439.91	15.83
440.266	15.8
440.622	15.78
440.978	15.74
441.334	15.7
441.69	15.67
442.046	15.62
442.402	15.53
442.758	15.46
443.113	15.41
443.469	15.35
443.825	15.29
444.181	15.25
444.536	15.22
444.892	15.16
445.247	15.11
445.603	15.08
445.958	15.04
446.314	14.98
446.669	14.93
447.025	14.9
447.38	14.84
447.735	14.8
448.09	14.75
448.446	14.72
448.801	14.67
449.156	14.63
449.511	14.6
449.866	14.6
450.221	14.62
450.576	14.61
450.931	14.6
451.286	14.6
451.641	14.6
451.995	14.59
452.35	14.6
452.705	14.61
453.06	14.63
453.414	14.68
453.769	14.72
454.123	14.75
454.478	14.76
454.832	14.77
455.187	14.79
455.541	14.78
455.896	14.77
456.25	14.81
456.604	14.83
456.958	14.85
457.313	14.87
457.667	14.9
458.021	14.92
458.375	15
458.729	15.06
459.083	15.1
459.437	15.14
459.791	15.2
460.145	15.26
460.499	15.33
460.852	15.38
461.206	15.46
461.56	15.54
461.914	15.62
462.267	15.72
462.621	15.83
462.974	15.98
463.328	16.15
463.681	16.3
464.035	16.48
464.388	16.66
464.742	16.82
465.095	16.97
465.448	17.14
465.801	17.23
466.155	17.34
466.508	17.46
466.861	17.57
467.214	17.69
467.567	17.78
467.92	17.86
468.273	17.93
468.626	17.99
468.979	18.05
469.332	18.11
469.684	18.15
470.037	18.21
470.39	18.25
470.743	18.31
471.095	18.36
471.448	18.4
471.8	18.44
472.153	18.45
472.505	18.48
472.858	18.44
473.21	18.44
473.562	18.41
473.915	18.36
474.267	18.31
474.619	18.23
474.971	18.16
475.324	18.09
475.676	18.01
476.028	17.93
476.38	17.86
476.732	17.77
477.084	17.68
477.436	17.56
477.787	17.47
478.139	17.35
478.491	17.22
478.843	17.07
479.195	16.91
479.546	16.72
479.898	16.47
480.249	16.26
480.601	16.08
480.952	15.95
481.304	15.85
481.655	15.78
482.007	15.71
482.358	15.65
482.709	15.6
483.061	15.56
483.412	15.53
483.763	15.5
484.114	15.47
484.465	15.46
484.816	15.45
485.167	15.44
485.518	15.44
485.869	15.45
486.22	15.47
486.571	15.49
486.922	15.53
487.272	15.59
487.623	15.67
487.974	15.77
488.324	15.89
488.675	16
489.025	16.1
489.376	16.2
489.726	16.32
490.077	16.44
490.427	16.55
490.778	16.67
491.128	16.84
491.478	17.02
491.828	17.21
492.179	17.44
492.529	17.66
492.879	17.88
493.229	18.11
493.579	18.31
493.929	18.52
494.279	18.73
494.629	18.97
494.979	19.26
495.328	19.58
495.678	19.96
496.028	20.33
496.378	20.68
496.727	21.03
497.077	21.34
497.426	21.63
497.776	21.91
498.125	22.18
498.475	22.45
498.824	22.7
499.174	22.96
499.523	23.23
499.872	23.49
500.221	23.78
500.571	24.08
500.92	24.39
501.269	24.67
501.618	24.95
501.967	25.22
502.316	25.47
502.665	25.74
503.014	26
503.363	26.25
503.711	26.49
504.06	26.72
504.409	26.93
504.758	27.14
505.106	27.33
505.455	27.52
505.803	27.67
506.152	27.83
506.5	27.99
506.849	28.11
507.197	28.25
507.546	28.38
507.894	28.51
508.242	28.65
508.59	28.76
508.939	28.89
509.287	29.02
509.635	29.13
509.983	29.23
510.331	29.31
510.679	29.39
511.027	29.45
511.375	29.51
511.723	29.6
512.07	29.68
512.418	29.76
512.766	29.84
513.114	29.95
513.461	30.05
513.809	30.13
514.156	30.19
514.504	30.26
514.851	30.35
515.199	30.39
515.546	30.42
515.893	30.49
516.241	30.53
516.588	30.54
516.935	30.58
517.282	30.62
517.63	30.65
517.977	30.71
518.324	30.76
518.671	30.8
519.018	30.83
519.365	30.84
519.711	30.89
520.058	30.91
520.405	30.93
520.752	30.94
521.099	30.97
521.445	31.01
521.792	31.04
522.138	31.02
522.485	31.09
522.832	31.11
523.178	31.13
523.524	31.18
523.871	31.23
524.217	31.24
524.563	31.24
524.91	31.25
525.256	31.28
525.602	31.29
525.948	31.29
526.294	31.28
526.64	31.28
526.986	31.26
527.332	31.27
527.678	31.26
528.024	31.26
528.37	31.26
528.716	31.25
529.061	31.26
529.407	31.26
529.753	31.26
530.098	31.25
530.444	31.26
530.789	31.24
531.135	31.23
531.48	31.25
531.826	31.26
532.171	31.27
532.516	31.25
532.862	31.25
533.207	31.27
533.552	31.26
533.897	31.28
534.242	31.31
534.587	31.31
534.932	31.33
535.277	31.33
535.622	31.36
535.967	31.41
536.312	31.42
536.657	31.46
537.001	31.49
537.346	31.5
537.691	31.51
538.035	31.53
538.38	31.54
538.724	31.53
539.069	31.51
539.413	31.49
539.758	31.5
540.102	31.48
540.446	31.47
540.791	31.5
541.135	31.5
541.479	31.48
541.823	31.48
542.167	31.49
542.512	31.5
542.856	31.48
543.2	31.45
543.543	31.44
543.887	31.43
544.231	31.43
544.575	31.44
544.919	31.44
545.262	31.44
545.606	31.45
545.95	31.46
546.293	31.48
546.637	31.51
546.98	31.52
547.324	31.55
547.667	31.57
548.011	31.57
548.354	31.58
548.697	31.62
549.04	31.64
549.384	31.62
549.727	31.62
550.07	31.61
550.413	31.63
550.756	31.61
551.099	31.64
551.442	31.65
551.785	31.64
552.128	31.64
552.47	31.63
552.813	31.6
553.156	31.6
553.499	31.59
553.841	31.59
554.184	31.58
554.526	31.55
554.869	31.54
555.211	31.57
555.554	31.58
555.896	31.55
556.238	31.52
556.581	31.5
556.923	31.49
557.265	31.47
557.607	31.44
557.949	31.44
558.291	31.39
558.633	31.35
558.975	31.31
559.317	31.3
559.659	31.25
560.001	31.26
560.343	31.21
560.685	31.2
561.026	31.15
561.368	31.13
561.71	31.11
562.051	31.1
562.393	31.06
562.734	31.04
563.076	31
563.417	30.98
563.759	31
564.1	30.97
564.441	30.94
564.782	30.92
565.124	30.91
565.465	30.87
565.806	30.84
566.147	30.87
566.488	30.83
566.829	30.81
567.17	30.78
567.511	30.78
567.851	30.72
568.192	30.71
568.533	30.66
568.874	30.63
569.214	30.57
569.555	30.54
569.895	30.48
570.236	30.46
570.576	30.4
570.917	30.37
571.257	30.35
571.598	30.33
571.938	30.29
572.278	30.25
572.618	30.24
572.959	30.23
573.299	30.18
573.639	30.16
573.979	30.12
574.319	30.1
574.659	30.07
574.999	30.06
575.339	30.04
575.678	30.06
576.018	30.01
576.358	30
576.698	29.97
577.037	29.97
577.377	29.96
577.716	29.97
578.056	29.93
578.395	29.9
578.735	29.88
579.074	29.85
579.413	29.81
579.753	29.82
580.092	29.81
580.431	29.84
580.77	29.8
581.109	29.85
581.448	29.83
581.787	29.79
582.126	29.8
582.465	29.77
582.804	29.74
583.143	29.72
583.482	29.71
583.82	29.68
584.159	29.62
584.498	29.59
584.836	29.55
585.175	29.49
585.514	29.44
585.852	29.44
586.19	29.46
586.529	29.48
586.867	29.44
587.205	29.4
587.544	29.4
587.882	29.41
588.22	29.39
588.558	29.37
588.896	29.4
589.234	29.36
589.572	29.36
589.91	29.29
590.248	29.3
590.586	29.24
590.924	29.24
591.262	29.23
591.599	29.23
591.937	29.26
592.275	29.27
592.612	29.28
592.95	29.24
593.287	29.23
593.625	29.2
593.962	29.19
594.299	29.19
594.637	29.15
594.974	29.18
595.311	29.14
595.648	29.14
595.985	29.15
596.322	29.16
596.659	29.16
596.996	29.15
597.333	29.15
597.67	29.16
598.007	29.15
598.344	29.16
598.681	29.11
599.017	29.07
599.354	29.06
599.691	29.09
600.027	29.06
600.364	29.07
600.7	29.11
601.037	29.14
601.373	29.14
601.71	29.17
602.046	29.16
602.382	29.16
602.718	29.16
603.054	29.12
603.391	29.08
603.727	29.07
604.063	29.05
604.399	29
604.735	28.99
605.071	29
605.406	28.97
605.742	29
606.078	29
606.414	28.99
606.749	28.99
607.085	29.01
607.421	28.98
607.756	28.96
608.092	28.93
608.427	28.88
608.762	28.81
609.098	28.72
609.433	28.68
609.768	28.64
610.104	28.58
610.439	28.58
610.774	28.55
611.109	28.55
611.444	28.55
611.779	28.56
612.114	28.54
612.449	28.51
612.784	28.45
613.118	28.42
613.453	28.42
613.788	28.33
614.123	28.25
614.457	28.18
614.792	28.14
615.126	28.06
615.461	28.06
615.795	28.03
616.13	28.04
616.464	28.02
616.798	27.96
617.132	28
617.467	27.97
617.801	27.95
618.135	27.96
618.469	27.94
618.803	27.89
619.137	27.86
619.471	27.84
619.805	27.89
620.139	27.87
620.472	27.78
620.806	27.81
621.14	27.79
621.473	27.77
621.807	27.72
622.141	27.74
622.474	27.72
622.808	27.72
623.141	27.74
623.474	27.77
623.808	27.85
624.141	27.83
624.474	27.84
624.807	27.85
625.141	27.86
625.474	27.89
625.807	27.88
626.14	27.91
626.473	27.97
626.806	27.95
627.138	27.95
627.471	28.01
627.804	27.97
628.137	28.03
628.469	28.03
628.802	28.04
629.135	28
629.467	27.95
629.8	27.95
630.132	27.95
630.465	27.92
630.797	27.87
631.129	27.88
631.461	27.87
631.794	27.88
632.126	27.84
632.458	27.84
632.79	27.87
633.122	27.84
633.454	27.84
633.786	27.8
634.118	27.79
634.45	27.75
634.781	27.77
635.113	27.76
635.445	27.78
635.777	27.75
636.108	27.76
636.44	27.79
636.771	27.79
637.103	27.74
637.434	27.69
637.765	27.77
638.097	27.79
638.428	27.79
638.759	27.79
639.09	27.78
639.422	27.73
639.753	27.68
640.084	27.66
640.415	27.58
640.746	27.58
641.077	27.6
641.407	27.62
641.738	27.61
642.069	27.56
642.4	27.52
642.73	27.52
643.061	27.51
643.392	27.53
643.722	27.56
644.053	27.58
644.383	27.63
