Data from pcis_p_m4_p3_Reflection_5.txt Node
Date: Wed Jul 12 17:58:48 ART 2017
User: rodoncho
Spectrometer: USB2E3644
Trigger mode: 4
Integration Time (sec): 6.000000E-2
Scans to average: 10
Electric dark correction enabled: true
Nonlinearity correction enabled: false
Boxcar width: 10
XAxis mode: Wavelengths
Number of Pixels in Spectrum: 2048
>>>>>Begin Spectral Data<<<<<
178.315	170.18
178.696	77.78
179.076	-203.03
179.457	-404.17
179.838	151.85
180.218	15.69
180.599	98.2
180.979	170
181.36	74.15
181.74	152.08
182.121	-966.67
182.501	98.7
182.881	92.42
183.262	95.19
183.642	16.05
184.022	7766.67
184.402	258.17
184.783	224.91
185.163	193.83
185.543	159.38
185.923	180.15
186.303	158.22
186.683	162.83
187.063	155.37
187.443	160.5
187.823	145.69
188.203	140.95
188.583	152.01
188.963	152.24
189.343	146.35
189.723	146.66
190.102	142.42
190.482	137.17
190.862	135.61
191.242	129.97
191.621	122.2
192.001	118.43
192.38	119.12
192.76	120.46
193.14	121.46
193.519	124.75
193.898	118.96
194.278	120.04
194.657	118.33
195.037	116.81
195.416	115.93
195.795	119.66
196.175	120.67
196.554	117.46
196.933	115.39
197.312	115.68
197.692	115.71
198.071	115.99
198.45	116.62
198.829	115.2
199.208	116.6
199.587	118.65
199.966	118.23
200.345	118.23
200.724	116.55
201.103	117.65
201.482	117.63
201.86	118.92
202.239	117.01
202.618	115.75
202.997	116.5
203.375	117.83
203.754	115.28
204.133	114.95
204.511	116.71
204.89	117.85
205.269	118.96
205.647	119.05
206.026	119.67
206.404	121.66
206.782	122.55
207.161	123.5
207.539	123.52
207.918	122.98
208.296	122.74
208.674	122.52
209.052	121.2
209.431	119.64
209.809	121.35
210.187	122.86
210.565	125.13
210.943	124.22
211.321	122.14
211.699	121.81
212.077	121.62
212.455	119.86
212.833	118.6
213.211	117.81
213.589	118.3
213.967	118.75
214.345	118.86
214.722	118.36
215.1	118.02
215.478	118.16
215.855	118.19
216.233	118.13
216.611	118.89
216.988	119.26
217.366	119.28
217.743	117.08
218.121	115.36
218.498	112.79
218.876	112.47
219.253	112.91
219.631	113.57
220.008	112.37
220.385	111.61
220.762	113.61
221.14	113.79
221.517	112.99
221.894	111.75
222.271	110.88
222.648	112.36
223.025	113.86
223.402	114.77
223.78	114.65
224.157	112.21
224.533	111.25
224.91	112.21
225.287	112.31
225.664	111.92
226.041	111.89
226.418	113.48
226.795	115.55
227.171	115.5
227.548	114.59
227.925	114.73
228.301	114.65
228.678	113.04
229.055	112.77
229.431	112.45
229.808	112.45
230.184	112.77
230.561	112.42
230.937	110.06
231.313	109.22
231.69	110.64
232.066	113.18
232.442	114.97
232.819	114.59
233.195	115.58
233.571	118.28
233.947	118.56
234.323	118.28
234.699	119.11
235.075	121.8
235.451	124.92
235.827	127.24
236.203	128.36
236.579	129.29
236.955	130.78
237.331	133.52
237.707	136.8
238.083	140.11
238.459	145.56
238.834	154.04
239.21	160.86
239.586	165.47
239.961	169.65
240.337	172.98
240.713	175.72
241.088	177.45
241.464	179.93
241.839	187.82
242.215	200.71
242.59	211.02
242.965	242.63
243.341	310.41
243.716	426.96
244.091	722.28
244.467	1580.36
244.842	9978.16
245.217	-2525.37
245.592	-1551.17
245.967	-1186.58
246.343	-1351.5
246.718	-1739.19
247.093	-1528.47
247.468	-1369.29
247.843	-1176.88
248.218	-844.82
248.593	-604.34
248.967	-445.44
249.342	-401.72
249.717	-388.92
250.092	-393.62
250.467	-414.73
250.841	-559.12
251.216	-1201.56
251.591	31907.41
251.965	1295.01
252.34	806.45
252.714	666.44
253.089	560.01
253.463	524.54
253.838	518.27
254.212	559.64
254.587	663.01
254.961	894.79
255.335	2339.9
255.71	-1590.09
256.084	-453.81
256.458	-262.29
256.832	-188.54
257.206	-160.19
257.581	-143.81
257.955	-136.31
258.329	-127.98
258.703	-118.32
259.077	-109.65
259.451	-102.78
259.825	-96.27
260.199	-93.53
260.572	-92.19
260.946	-88.59
261.32	-86.36
261.694	-82.46
262.068	-80.06
262.441	-77.89
262.815	-76.74
263.189	-77.03
263.562	-80.27
263.936	-92.24
264.309	-109.08
264.683	-127.85
265.056	-139.99
265.43	-148.11
265.803	-145.68
266.176	-140.33
266.55	-141.66
266.923	-139.95
267.296	-134.96
267.67	-129.66
268.043	-117.4
268.416	-105.25
268.789	-95.86
269.162	-84.59
269.535	-79.14
269.908	-76.16
270.281	-74.26
270.654	-74.43
271.027	-77.46
271.4	-79.59
271.773	-79.98
272.146	-78.4
272.519	-75.37
272.891	-71.71
273.264	-70.76
273.637	-69.61
274.01	-70.37
274.382	-69.12
274.755	-68.94
275.127	-69.63
275.5	-70.57
275.872	-71.88
276.245	-73.33
276.617	-76.43
276.99	-80.73
277.362	-82.12
277.734	-82.35
278.107	-80.91
278.479	-76.81
278.851	-72.59
279.223	-69.06
279.596	-67.06
279.968	-65.56
280.34	-65.88
280.712	-65.23
281.084	-61.4
281.456	-56.16
281.828	-51.89
282.2	-47.38
282.572	-44.31
282.944	-42.26
283.315	-40.88
283.687	-40.07
284.059	-39.17
284.431	-38.19
284.802	-37.77
285.174	-37.03
285.546	-35.68
285.917	-35.06
286.289	-34.49
286.66	-33.28
287.032	-32.89
287.403	-32.29
287.775	-31.97
288.146	-31.54
288.518	-31.31
288.889	-31.17
289.26	-32.7
289.632	-33.63
290.003	-35.3
290.374	-36.24
290.745	-36.74
291.116	-36.51
291.487	-35.42
291.858	-34.78
292.229	-34.23
292.6	-33.28
292.971	-32.34
293.342	-31.02
293.713	-29.32
294.084	-28
294.455	-27.24
294.826	-26.26
295.196	-26.55
295.567	-26.62
295.938	-25.96
296.308	-25.77
296.679	-25.22
297.05	-23.97
297.42	-23.02
297.791	-21.79
298.161	-20.73
298.532	-20.24
298.902	-19.77
299.272	-19.3
299.643	-18.63
300.013	-17.69
300.383	-17.1
300.754	-16.81
301.124	-16.93
301.494	-17.17
301.864	-17.47
302.234	-17.68
302.604	-17.9
302.974	-16.95
303.344	-16.03
303.714	-16.11
304.084	-15.5
304.454	-14.99
304.824	-14.68
305.194	-14.03
305.563	-13.32
305.933	-12.44
306.303	-11.13
306.673	-10.36
307.042	-9.96
307.412	-9.3
307.781	-8.29
308.151	-7.1
308.521	-6.07
308.89	-5.66
309.259	-5.34
309.629	-4.64
309.998	-3.78
310.368	-3.36
310.737	-3.22
311.106	-3.06
311.475	-2.36
311.845	-2.1
312.214	-1.75
312.583	-1.47
312.952	-1.19
313.321	-0.95
313.69	-1.05
314.059	-1.29
314.428	-1.3
314.797	-1.19
315.166	-1.39
315.535	-1.84
315.904	-2.15
316.272	-2.2
316.641	-2.18
317.01	-1.89
317.379	-2.09
317.747	-2.24
318.116	-1.86
318.484	-1.44
318.853	-0.69
319.221	-0.21
319.59	0.37
319.958	0.61
320.327	1.15
320.695	1.6
321.063	1.88
321.432	2.47
321.8	3.19
322.168	4.21
322.536	4.99
322.905	5.86
323.273	6.71
323.641	7.33
324.009	7.23
324.377	7.56
324.745	7.85
325.113	8.29
325.481	8.93
325.849	9.37
326.216	9.91
326.584	10.39
326.952	10.67
327.32	11.01
327.687	11.43
328.055	11.61
328.423	11.92
328.79	12.11
329.158	12.19
329.525	12.56
329.893	12.75
330.26	12.87
330.628	12.65
330.995	12.8
331.362	13.15
331.73	13.65
332.097	13.99
332.464	14.13
332.831	14.18
333.199	14.24
333.566	14.36
333.933	14.36
334.3	14.37
334.667	14.57
335.034	14.79
335.401	14.95
335.768	15.09
336.135	15.26
336.502	15.47
336.868	15.82
337.235	15.95
337.602	16.09
337.969	16.38
338.335	16.86
338.702	17.12
339.069	17.23
339.435	17.42
339.802	17.53
340.168	17.9
340.535	18.35
340.901	18.46
341.267	18.64
341.634	18.91
342	19.19
342.366	19.34
342.733	19.47
343.099	19.6
343.465	19.76
343.831	19.98
344.197	20.19
344.563	20.28
344.929	20.41
345.295	20.55
345.661	20.65
346.027	20.91
346.393	20.9
346.759	20.99
347.125	21.19
347.491	21.45
347.856	21.67
348.222	21.73
348.588	21.86
348.953	22
349.319	22.05
349.684	21.91
350.05	21.99
350.415	22.18
350.781	22.28
351.146	22.42
351.512	22.39
351.877	22.47
352.242	22.67
352.608	22.71
352.973	22.77
353.338	22.82
353.703	22.74
354.068	22.8
354.433	22.84
354.798	22.89
355.164	22.82
355.528	22.72
355.893	22.77
356.258	22.85
356.623	22.83
356.988	22.74
357.353	22.83
357.718	22.85
358.082	22.82
358.447	22.81
358.812	22.68
359.176	22.62
359.541	22.57
359.905	22.53
360.27	22.61
360.634	22.64
360.999	22.65
361.363	22.67
361.728	22.65
362.092	22.64
362.456	22.48
362.821	22.47
363.185	22.42
363.549	22.3
363.913	22.22
364.277	22.17
364.641	22.2
365.005	22.2
365.369	22.17
365.733	22.03
366.097	21.95
366.461	22.04
366.825	22.03
367.189	22.04
367.553	21.99
367.916	21.9
368.28	21.91
368.644	21.88
369.007	21.82
369.371	21.76
369.734	21.66
370.098	21.68
370.461	21.67
370.825	21.67
371.188	21.65
371.552	21.61
371.915	21.53
372.278	21.45
372.642	21.41
373.005	21.29
373.368	21.23
373.731	21.24
374.094	21.17
374.457	21.03
374.82	20.91
375.183	20.8
375.546	20.68
375.909	20.51
376.272	20.34
376.635	20.25
376.998	20.17
377.361	20.08
377.723	20
378.086	19.88
378.449	19.76
378.811	19.72
379.174	19.63
379.537	19.47
379.899	19.46
380.262	19.41
380.624	19.34
380.987	19.25
381.349	19.1
381.711	18.98
382.074	18.94
382.436	18.91
382.798	18.87
383.16	18.78
383.522	18.71
383.884	18.72
384.247	18.67
384.609	18.59
384.971	18.5
385.333	18.47
385.695	18.38
386.056	18.31
386.418	18.17
386.78	18.1
387.142	18.09
387.504	17.96
387.865	17.81
388.227	17.74
388.589	17.67
388.95	17.61
389.312	17.49
389.673	17.42
390.035	17.29
390.396	17.13
390.758	17.02
391.119	16.89
391.48	16.75
391.842	16.65
392.203	16.56
392.564	16.46
392.925	16.32
393.286	16.22
393.648	16.13
394.009	16.01
394.37	15.86
394.731	15.74
395.092	15.59
395.452	15.48
395.813	15.34
396.174	15.21
396.535	15.08
396.896	14.96
397.257	14.85
397.617	14.76
397.978	14.67
398.338	14.63
398.699	14.56
399.06	14.48
399.42	14.31
399.781	14.19
400.141	14.07
400.501	13.93
400.862	13.86
401.222	13.76
401.582	13.72
401.943	13.67
402.303	13.61
402.663	13.57
403.023	13.52
403.383	13.45
403.743	13.39
404.103	13.38
404.463	13.38
404.823	13.35
405.183	13.28
405.543	13.26
405.903	13.18
406.262	13.14
406.622	13.1
406.982	13.08
407.342	13.09
407.701	13.06
408.061	13.06
408.42	13.02
408.78	12.98
409.139	12.94
409.499	12.9
409.858	12.89
410.217	12.84
410.577	12.81
410.936	12.8
411.295	12.76
411.655	12.69
412.014	12.58
412.373	12.54
412.732	12.49
413.091	12.39
413.45	12.3
413.809	12.2
414.168	12.1
414.527	12.01
414.886	11.85
415.245	11.73
415.603	11.6
415.962	11.48
416.321	11.37
416.679	11.24
417.038	11.11
417.397	10.98
417.755	10.85
418.114	10.73
418.472	10.63
418.831	10.55
419.189	10.46
419.547	10.39
419.906	10.31
420.264	10.22
420.622	10.14
420.981	10.07
421.339	10
421.697	9.94
422.055	9.89
422.413	9.84
422.771	9.81
423.129	9.78
423.487	9.77
423.845	9.75
424.203	9.74
424.56	9.72
424.918	9.69
425.276	9.71
425.634	9.73
425.991	9.73
426.349	9.73
426.707	9.74
427.064	9.74
427.422	9.75
427.779	9.77
428.137	9.8
428.494	9.83
428.851	9.84
429.209	9.88
429.566	9.89
429.923	9.9
430.28	9.92
430.637	9.92
430.995	9.92
431.352	9.9
431.709	9.91
432.066	9.93
432.423	9.96
432.78	9.97
433.137	9.98
433.493	9.99
433.85	10.02
434.207	10.02
434.564	10.05
434.92	10.04
435.277	10.02
435.634	10.03
435.99	10.03
436.347	10.04
436.703	10.02
437.06	10
437.416	10.02
437.773	10
438.129	10.01
438.485	10
438.841	10
439.198	10
439.554	9.99
439.91	10
440.266	9.97
440.622	9.93
440.978	9.89
441.334	9.84
441.69	9.8
442.046	9.75
442.402	9.71
442.758	9.64
443.113	9.57
443.469	9.51
443.825	9.46
444.181	9.42
444.536	9.39
444.892	9.34
445.247	9.3
445.603	9.28
445.958	9.25
446.314	9.21
446.669	9.17
447.025	9.14
447.38	9.11
447.735	9.08
448.09	9.06
448.446	9.06
448.801	9.03
449.156	9.01
449.511	8.99
449.866	8.99
450.221	9.03
450.576	9.03
450.931	9.03
451.286	9.02
451.641	9.04
451.995	9.04
452.35	9.05
452.705	9.06
453.06	9.05
453.414	9.08
453.769	9.08
454.123	9.1
454.478	9.09
454.832	9.09
455.187	9.09
455.541	9.06
455.896	9.01
456.25	9
456.604	8.98
456.958	8.97
457.313	8.94
457.667	8.93
458.021	8.95
458.375	8.98
458.729	9.03
459.083	9.05
459.437	9.08
459.791	9.11
460.145	9.15
460.499	9.19
460.852	9.21
461.206	9.25
461.56	9.3
461.914	9.36
462.267	9.42
462.621	9.49
462.974	9.61
463.328	9.75
463.681	9.87
464.035	10.02
464.388	10.17
464.742	10.31
465.095	10.42
465.448	10.54
465.801	10.66
466.155	10.74
466.508	10.86
466.861	10.95
467.214	11.05
467.567	11.13
467.92	11.2
468.273	11.29
468.626	11.38
468.979	11.46
469.332	11.5
469.684	11.54
470.037	11.62
470.39	11.65
470.743	11.71
471.095	11.78
471.448	11.82
471.8	11.83
472.153	11.85
472.505	11.87
472.858	11.85
473.21	11.79
473.562	11.75
473.915	11.68
474.267	11.61
474.619	11.53
474.971	11.43
475.324	11.36
475.676	11.27
476.028	11.16
476.38	11.06
476.732	10.96
477.084	10.87
477.436	10.74
477.787	10.63
478.139	10.5
478.491	10.36
478.843	10.22
479.195	10.09
479.546	9.91
479.898	9.69
480.249	9.5
480.601	9.36
480.952	9.24
481.304	9.14
481.655	9.06
482.007	8.98
482.358	8.94
482.709	8.9
483.061	8.86
483.412	8.83
483.763	8.81
484.114	8.79
484.465	8.77
484.816	8.75
485.167	8.73
485.518	8.71
485.869	8.71
486.22	8.71
486.571	8.73
486.922	8.76
487.272	8.8
487.623	8.87
487.974	8.95
488.324	9.05
488.675	9.14
489.025	9.24
489.376	9.35
489.726	9.44
490.077	9.54
490.427	9.63
490.778	9.75
491.128	9.89
491.478	10.06
491.828	10.26
492.179	10.49
492.529	10.75
492.879	11.02
493.229	11.29
493.579	11.58
493.929	11.84
494.279	12.13
494.629	12.46
494.979	12.87
495.328	13.34
495.678	13.88
496.028	14.47
496.378	15.03
496.727	15.62
497.077	16.2
497.426	16.77
497.776	17.32
498.125	17.9
498.475	18.47
498.824	19.05
499.174	19.64
499.523	20.24
499.872	20.9
500.221	21.61
500.571	22.37
500.92	23.15
501.269	23.93
501.618	24.7
501.967	25.46
502.316	26.24
502.665	27.01
503.014	27.75
503.363	28.51
503.711	29.22
504.06	29.92
504.409	30.6
504.758	31.3
505.106	31.97
505.455	32.61
505.803	33.22
506.152	33.78
506.5	34.29
506.849	34.8
507.197	35.29
507.546	35.77
507.894	36.21
508.242	36.67
508.59	37.11
508.939	37.52
509.287	37.89
509.635	38.24
509.983	38.58
510.331	38.92
510.679	39.22
511.027	39.54
511.375	39.82
511.723	40.13
512.07	40.42
512.418	40.75
512.766	41.03
513.114	41.29
513.461	41.58
513.809	41.85
514.156	42.11
514.504	42.38
514.851	42.61
515.199	42.89
515.546	43.12
515.893	43.32
516.241	43.52
516.588	43.73
516.935	43.9
517.282	44.06
517.63	44.22
517.977	44.37
518.324	44.52
518.671	44.68
519.018	44.83
519.365	44.94
519.711	45.05
520.058	45.16
520.405	45.3
520.752	45.4
521.099	45.51
521.445	45.65
521.792	45.79
522.138	45.95
522.485	46.09
522.832	46.23
523.178	46.42
523.524	46.56
523.871	46.69
524.217	46.82
524.563	46.98
524.91	47.19
525.256	47.42
525.602	47.58
525.948	47.67
526.294	47.7
526.64	47.74
526.986	47.76
527.332	47.78
527.678	47.81
528.024	47.85
528.37	47.9
528.716	47.96
529.061	48.01
529.407	48.06
529.753	48.13
530.098	48.19
530.444	48.23
530.789	48.27
531.135	48.3
531.48	48.34
531.826	48.36
532.171	48.36
532.516	48.34
532.862	48.36
533.207	48.4
533.552	48.48
533.897	48.58
534.242	48.67
534.587	48.74
534.932	48.8
535.277	48.85
535.622	48.89
535.967	48.9
536.312	48.92
536.657	48.99
537.001	49.02
537.346	49.06
537.691	49.13
538.035	49.2
538.38	49.29
538.724	49.36
539.069	49.4
539.413	49.43
539.758	49.43
540.102	49.4
540.446	49.39
540.791	49.37
541.135	49.37
541.479	49.35
541.823	49.36
542.167	49.35
542.512	49.34
542.856	49.34
543.2	49.37
543.543	49.38
543.887	49.34
544.231	49.33
544.575	49.33
544.919	49.28
545.262	49.26
545.606	49.21
545.95	49.17
546.293	49.14
546.637	49.11
546.98	49.11
547.324	49.13
547.667	49.17
548.011	49.16
548.354	49.13
548.697	49.14
549.04	49.1
549.384	49.08
549.727	49.06
550.07	49.06
550.413	48.99
550.756	48.94
551.099	48.91
551.442	48.85
551.785	48.79
552.128	48.77
552.47	48.69
552.813	48.64
553.156	48.56
553.499	48.48
553.841	48.43
554.184	48.37
554.526	48.29
554.869	48.2
555.211	48.13
555.554	48.03
555.896	47.97
556.238	47.89
556.581	47.83
556.923	47.73
557.265	47.61
557.607	47.52
557.949	47.43
558.291	47.35
558.633	47.26
558.975	47.22
559.317	47.14
559.659	47.03
560.001	46.97
560.343	46.93
560.685	46.84
561.026	46.79
561.368	46.71
561.71	46.66
562.051	46.58
562.393	46.54
562.734	46.49
563.076	46.37
563.417	46.28
563.759	46.17
564.1	46.05
564.441	45.96
564.782	45.82
565.124	45.72
565.465	45.6
565.806	45.5
566.147	45.34
566.488	45.2
566.829	45.12
567.17	45.02
567.511	44.92
567.851	44.86
568.192	44.74
568.533	44.6
568.874	44.44
569.214	44.35
569.555	44.22
569.895	44.08
570.236	43.95
570.576	43.79
570.917	43.69
571.257	43.58
571.598	43.47
571.938	43.38
572.278	43.31
572.618	43.26
572.959	43.15
573.299	43.1
573.639	43.03
573.979	42.95
574.319	42.82
574.659	42.67
574.999	42.56
575.339	42.47
575.678	42.36
576.018	42.27
576.358	42.1
576.698	41.96
577.037	41.81
577.377	41.71
577.716	41.58
578.056	41.41
578.395	41.3
578.735	41.11
579.074	40.96
579.413	40.74
579.753	40.55
580.092	40.39
580.431	40.21
580.77	40.03
581.109	39.83
581.448	39.65
581.787	39.5
582.126	39.33
582.465	39.12
582.804	38.97
583.143	38.82
583.482	38.68
583.82	38.53
584.159	38.38
584.498	38.21
584.836	38.11
585.175	38.02
585.514	37.82
585.852	37.73
586.19	37.61
586.529	37.51
586.867	37.39
587.205	37.3
587.544	37.19
587.882	37.06
588.22	36.93
588.558	36.83
588.896	36.7
589.234	36.54
589.572	36.42
589.91	36.29
590.248	36.15
590.586	36.03
590.924	35.9
591.262	35.8
591.599	35.68
591.937	35.54
592.275	35.4
592.612	35.31
592.95	35.17
593.287	35.02
593.625	34.91
593.962	34.8
594.299	34.67
594.637	34.54
594.974	34.44
595.311	34.35
595.648	34.24
595.985	34.16
596.322	34.04
596.659	33.94
596.996	33.85
597.333	33.74
597.67	33.62
598.007	33.5
598.344	33.39
598.681	33.25
599.017	33.13
599.354	32.98
599.691	32.83
600.027	32.71
600.364	32.56
600.7	32.38
601.037	32.18
601.373	31.99
601.71	31.81
602.046	31.66
602.382	31.51
602.718	31.36
603.054	31.22
603.391	31.14
603.727	31.03
604.063	30.87
604.399	30.72
604.735	30.62
605.071	30.52
605.406	30.44
605.742	30.35
606.078	30.25
606.414	30.2
606.749	30.11
607.085	29.95
607.421	29.82
607.756	29.7
608.092	29.58
608.427	29.44
608.762	29.35
609.098	29.21
609.433	29.12
609.768	29.04
610.104	28.95
610.439	28.83
610.774	28.71
611.109	28.64
611.444	28.58
611.779	28.49
612.114	28.38
612.449	28.2
612.784	28.07
613.118	27.93
613.453	27.77
613.788	27.62
614.123	27.52
614.457	27.4
614.792	27.25
615.126	27.1
615.461	27
615.795	26.89
616.13	26.74
616.464	26.61
616.798	26.47
617.132	26.38
617.467	26.26
617.801	26.15
618.135	26.07
618.469	25.99
618.803	25.85
619.137	25.83
619.471	25.73
619.805	25.66
620.139	25.55
620.472	25.41
620.806	25.33
621.14	25.21
621.473	25.15
621.807	25
622.141	24.89
622.474	24.77
622.808	24.62
623.141	24.59
623.474	24.52
623.808	24.49
624.141	24.42
624.474	24.43
624.807	24.41
625.141	24.34
625.474	24.27
625.807	24.17
626.14	24.03
626.473	23.98
626.806	23.9
627.138	23.83
627.471	23.77
627.804	23.71
628.137	23.63
628.469	23.53
628.802	23.5
629.135	23.4
629.467	23.3
629.8	23.21
630.132	23.11
630.465	23.01
630.797	22.92
631.129	22.83
631.461	22.68
631.794	22.55
632.126	22.45
632.458	22.36
632.79	22.35
633.122	22.31
633.454	22.24
633.786	22.13
634.118	22.07
634.45	21.99
634.781	21.88
635.113	21.81
635.445	21.74
635.777	21.67
636.108	21.63
636.44	21.6
636.771	21.55
637.103	21.45
637.434	21.4
637.765	21.28
638.097	21.18
638.428	21.1
638.759	21.04
639.09	20.94
639.422	20.87
639.753	20.75
640.084	20.64
640.415	20.55
640.746	20.5
641.077	20.44
641.407	20.36
641.738	20.27
642.069	20.23
642.4	20.18
642.73	20.14
643.061	20.06
643.392	20.02
643.722	19.97
644.053	19.85
644.383	19.74
644.713	19.63
645.044	19.58
645.374	19.49
645.704	19.44
646.034	19.39
646.365	19.33
