Data from pcis_p_m4_p2_Reflection_3.txt Node
Date: Wed Jul 12 17:57:51 ART 2017
User: rodoncho
Spectrometer: USB2E3644
Trigger mode: 4
Integration Time (sec): 6.000000E-2
Scans to average: 10
Electric dark correction enabled: true
Nonlinearity correction enabled: false
Boxcar width: 10
XAxis mode: Wavelengths
Number of Pixels in Spectrum: 2048
>>>>>Begin Spectral Data<<<<<
178.315	-283.77
178.696	1042.86
179.076	482.87
179.457	190.39
179.838	267.37
180.218	348.28
180.599	-8
180.979	94.44
181.36	-1160
181.74	192.47
182.121	154.97
182.501	62.92
182.881	62.84
183.262	52.41
183.642	298.59
184.022	190.11
184.402	142.49
184.783	126.79
185.163	136.59
185.543	134.11
185.923	148.12
186.303	138.52
186.683	125.36
187.063	118.67
187.443	110.04
187.823	109.88
188.203	108.66
188.583	112.01
188.963	112.38
189.343	107.76
189.723	110.57
190.102	112.73
190.482	111.93
190.862	111.85
191.242	115.05
191.621	116.47
192.001	117.72
192.38	121.47
192.76	125.11
193.14	125.15
193.519	124
193.898	121.79
194.278	121.59
194.657	122.05
195.037	122.22
195.416	122.67
195.795	122.24
196.175	119.62
196.554	117.9
196.933	117.24
197.312	117.53
197.692	115.29
198.071	114.09
198.45	115.37
198.829	114.64
199.208	112.89
199.587	111.6
199.966	110
200.345	109.34
200.724	104.89
201.103	103.39
201.482	104.18
201.86	104.26
202.239	103.13
202.618	103
202.997	103.79
203.375	105.96
203.754	105.54
204.133	105.12
204.511	103.98
204.89	104
205.269	102.65
205.647	103.08
206.026	103.24
206.404	101.81
206.782	101.72
207.161	102.77
207.539	102.23
207.918	102.21
208.296	102.1
208.674	105.66
209.052	106.09
209.431	106.81
209.809	107.3
210.187	108.33
210.565	107.68
210.943	106.41
211.321	103.71
211.699	103.88
212.077	104.28
212.455	104.43
212.833	104.67
213.211	105.58
213.589	107.02
213.967	106.86
214.345	108.7
214.722	110.34
215.1	109.97
215.478	111.13
215.855	111.02
216.233	110.32
216.611	109.83
216.988	109.3
217.366	107.98
217.743	108.53
218.121	108.07
218.498	109.56
218.876	111.54
219.253	112.34
219.631	112.72
220.008	111.59
220.385	111.2
220.762	110.49
221.14	110.67
221.517	109.01
221.894	108.87
222.271	106.18
222.648	104.59
223.025	104.05
223.402	102.7
223.78	102.64
224.157	103.12
224.533	104.04
224.91	105.42
225.287	107.17
225.664	106.75
226.041	107.34
226.418	106.28
226.795	105.27
227.171	104.51
227.548	104.89
227.925	107.48
228.301	108.24
228.678	109.36
229.055	108.97
229.431	109.74
229.808	110.06
230.184	111.18
230.561	111.4
230.937	111.84
231.313	112.7
231.69	112.33
232.066	111.94
232.442	111.9
232.819	111.18
233.195	110.31
233.571	110.44
233.947	110.63
234.323	110.41
234.699	110.64
235.075	112.32
235.451	112.42
235.827	110.79
236.203	112.17
236.579	114.12
236.955	115.82
237.331	116.32
237.707	118.32
238.083	121.56
238.459	126.98
238.834	134.52
239.21	140.17
239.586	148.66
239.961	155.65
240.337	158.6
240.713	161.21
241.088	163.91
241.464	168.4
241.839	175.01
242.215	183.1
242.59	197.96
242.965	233.24
243.341	309.08
243.716	458.66
244.091	794.03
244.467	1701.33
244.842	-46652.63
245.217	-1533.45
245.592	-1189.72
245.967	-1059.4
246.343	-1139.87
246.718	-1354.7
247.093	-1251.52
247.468	-1214.79
247.843	-1039.85
248.218	-799.44
248.593	-595.18
248.967	-454.47
249.342	-381.32
249.717	-355.38
250.092	-351.57
250.467	-377.91
250.841	-505.7
251.216	-1012.79
251.591	-17563.27
251.965	1476.56
252.34	852.8
252.714	670.39
253.089	542.73
253.463	516.5
253.838	557.35
254.212	631.77
254.587	713.36
254.961	1013.03
255.335	4462.94
255.71	-1281.43
256.084	-401.91
256.458	-226.4
256.832	-161.88
257.206	-139.78
257.581	-129.04
257.955	-121.73
258.329	-114.97
258.703	-107.43
259.077	-101.57
259.451	-95.4
259.825	-89.45
260.199	-86.39
260.572	-84.3
260.946	-80.98
261.32	-79.41
261.694	-78.21
262.068	-77.83
262.441	-76.12
262.815	-75.59
263.189	-76.91
263.562	-81.37
263.936	-93.64
264.309	-113.15
264.683	-135.59
265.056	-153.36
265.43	-160.78
265.803	-155.29
266.176	-149.1
266.55	-152.31
266.923	-150.52
267.296	-144.41
267.67	-139
268.043	-127.74
268.416	-114.37
268.789	-100.32
269.162	-88.68
269.535	-82.66
269.908	-77.39
270.281	-74.15
270.654	-73.67
271.027	-75.3
271.4	-74.92
271.773	-75.2
272.146	-73.83
272.519	-70.7
272.891	-67.67
273.264	-65.67
273.637	-65.71
274.01	-66.95
274.382	-65.2
274.755	-64.21
275.127	-63.99
275.5	-64.11
275.872	-64.61
276.245	-65.45
276.617	-68.4
276.99	-71.95
277.362	-73.98
277.734	-74.97
278.107	-74.87
278.479	-71.39
278.851	-67.74
279.223	-65.79
279.596	-64.22
279.968	-63.64
280.34	-63.81
280.712	-62.47
281.084	-59.31
281.456	-53.84
281.828	-49.16
282.2	-45.16
282.572	-41.6
282.944	-39.57
283.315	-38.45
283.687	-37.55
284.059	-37
284.431	-36.42
284.802	-35.47
285.174	-34.35
285.546	-33.22
285.917	-32.64
286.289	-31.56
286.66	-30.6
287.032	-30.04
287.403	-29.39
287.775	-29.06
288.146	-28.36
288.518	-27.67
288.889	-27.7
289.26	-28.92
289.632	-29.94
290.003	-31.4
290.374	-32.48
290.745	-32.91
291.116	-32.35
291.487	-31.38
291.858	-29.99
292.229	-28.91
292.6	-27.6
292.971	-25.88
293.342	-23.73
293.713	-21.69
294.084	-20.52
294.455	-19.42
294.826	-18.49
295.196	-18.11
295.567	-17.38
295.938	-17.12
296.308	-17.12
296.679	-16.38
297.05	-15.28
297.42	-14.19
297.791	-13
298.161	-12.02
298.532	-11.22
298.902	-10.92
299.272	-10.45
299.643	-9.84
300.013	-9.06
300.383	-8.36
300.754	-8.09
301.124	-8.04
301.494	-7.59
301.864	-7.36
302.234	-7.15
302.604	-6.83
302.974	-6.14
303.344	-6.01
303.714	-5.87
304.084	-5.04
304.454	-4.72
304.824	-4.22
305.194	-3.54
305.563	-2.93
305.933	-2.26
306.303	-1.07
306.673	0.12
307.042	0.87
307.412	1.63
307.781	2.51
308.151	3.17
308.521	3.65
308.89	4.26
309.259	4.73
309.629	5.22
309.998	5.34
310.368	5.32
310.737	5.53
311.106	5.92
311.475	6.78
311.845	7.33
312.214	7.87
312.583	8.05
312.952	8.12
313.321	8.47
313.69	8.62
314.059	8.47
314.428	8.45
314.797	8.37
315.166	8
315.535	7.61
315.904	7.4
316.272	7.28
316.641	7.12
317.01	6.97
317.379	6.68
317.747	6.83
318.116	7.11
318.484	7.41
318.853	7.89
319.221	8.11
319.59	8.07
319.958	8.21
320.327	8.39
320.695	8.73
321.063	8.83
321.432	9.14
321.8	9.29
322.168	9.8
322.536	10.16
322.905	10.71
323.273	11.08
323.641	11.52
324.009	11.76
324.377	12.04
324.745	12.47
325.113	12.7
325.481	13.31
325.849	13.82
326.216	14.02
326.584	14.35
326.952	14.45
327.32	14.78
327.687	15.21
328.055	15.58
328.423	15.65
328.79	15.79
329.158	15.89
329.525	16.25
329.893	16.36
330.26	16.64
330.628	16.55
330.995	16.66
331.362	16.77
331.73	17.17
332.097	17.41
332.464	17.41
332.831	17.81
333.199	17.88
333.566	18.2
333.933	18.44
334.3	18.42
334.667	18.54
335.034	18.57
335.401	18.54
335.768	18.6
336.135	18.94
336.502	19.04
336.868	19.24
337.235	19.43
337.602	19.6
337.969	19.79
338.335	20.16
338.702	20.51
339.069	20.66
339.435	20.7
339.802	20.76
340.168	20.94
340.535	21.06
340.901	21.2
341.267	21.3
341.634	21.43
342	21.58
342.366	21.76
342.733	21.9
343.099	22.12
343.465	22.45
343.831	22.6
344.197	22.89
344.563	23.02
344.929	23.21
345.295	23.34
345.661	23.41
346.027	23.57
346.393	23.66
346.759	23.8
347.125	23.95
347.491	24.08
347.856	24.13
348.222	24.06
348.588	24.05
348.953	24.03
349.319	24.13
349.684	24.34
350.05	24.43
350.415	24.55
350.781	24.69
351.146	24.7
351.512	24.85
351.877	24.97
352.242	25.17
352.608	25.2
352.973	25.38
353.338	25.51
353.703	25.53
354.068	25.66
354.433	25.8
354.798	25.95
355.164	26.01
355.528	26.13
355.893	26.36
356.258	26.5
356.623	26.6
356.988	26.71
357.353	26.84
357.718	27
358.082	27.21
358.447	27.34
358.812	27.35
359.176	27.34
359.541	27.39
359.905	27.39
360.27	27.58
360.634	27.66
360.999	27.76
361.363	27.86
361.728	27.9
362.092	27.99
362.456	28.03
362.821	28.19
363.185	28.33
363.549	28.44
363.913	28.6
364.277	28.73
364.641	28.77
365.005	28.85
365.369	28.93
365.733	28.94
366.097	29.02
366.461	29.12
366.825	29.29
367.189	29.37
367.553	29.55
367.916	29.62
368.28	29.7
368.644	29.82
369.007	29.96
369.371	30.14
369.734	30.21
370.098	30.37
370.461	30.45
370.825	30.58
371.188	30.72
371.552	30.79
371.915	30.97
372.278	31.21
372.642	31.38
373.005	31.55
373.368	31.59
373.731	31.67
374.094	31.81
374.457	31.89
374.82	32
375.183	32.05
375.546	32.18
375.909	32.31
376.272	32.48
376.635	32.55
376.998	32.6
377.361	32.66
377.723	32.71
378.086	32.88
378.449	33.01
378.811	33.08
379.174	33.21
379.537	33.22
379.899	33.31
380.262	33.38
380.624	33.37
380.987	33.57
381.349	33.65
381.711	33.75
382.074	33.86
382.436	33.97
382.798	34.04
383.16	34.06
383.522	34.17
383.884	34.21
384.247	34.32
384.609	34.39
384.971	34.48
385.333	34.58
385.695	34.61
386.056	34.57
386.418	34.66
386.78	34.75
387.142	34.79
387.504	34.81
387.865	34.8
388.227	34.86
388.589	34.88
388.95	34.91
389.312	34.93
389.673	35.01
390.035	35.06
390.396	35.13
390.758	35.18
391.119	35.23
391.48	35.22
391.842	35.23
392.203	35.29
392.564	35.37
392.925	35.46
393.286	35.53
393.648	35.59
394.009	35.61
394.37	35.6
394.731	35.63
395.092	35.67
395.452	35.76
395.813	35.89
396.174	35.96
396.535	36.03
396.896	36.09
397.257	36.15
397.617	36.18
397.978	36.21
398.338	36.26
398.699	36.27
399.06	36.31
399.42	36.31
399.781	36.38
400.141	36.44
400.501	36.46
400.862	36.44
401.222	36.46
401.582	36.51
401.943	36.56
402.303	36.63
402.663	36.67
403.023	36.7
403.383	36.66
403.743	36.68
404.103	36.72
404.463	36.77
404.823	36.75
405.183	36.75
405.543	36.79
405.903	36.8
406.262	36.83
406.622	36.89
406.982	36.94
407.342	36.96
407.701	36.96
408.061	36.92
408.42	36.95
408.78	37.01
409.139	36.99
409.499	37.01
409.858	37.02
410.217	37.04
410.577	37.03
410.936	37.04
411.295	37
411.655	37
412.014	36.95
412.373	36.94
412.732	36.89
413.091	36.9
413.45	36.87
413.809	36.81
414.168	36.77
414.527	36.72
414.886	36.65
415.245	36.58
415.603	36.52
415.962	36.47
416.321	36.43
416.679	36.39
417.038	36.28
417.397	36.21
417.755	36.12
418.114	36.08
418.472	36.01
418.831	35.98
419.189	35.93
419.547	35.87
419.906	35.8
420.264	35.75
420.622	35.67
420.981	35.58
421.339	35.52
421.697	35.46
422.055	35.42
422.413	35.37
422.771	35.34
423.129	35.32
423.487	35.29
423.845	35.22
424.203	35.2
424.56	35.18
424.918	35.13
425.276	35.12
425.634	35.06
425.991	35.01
426.349	34.95
426.707	34.91
427.064	34.86
427.422	34.82
427.779	34.77
428.137	34.73
428.494	34.69
428.851	34.62
429.209	34.54
429.566	34.4
429.923	34.31
430.28	34.16
430.637	34.07
430.995	33.94
431.352	33.89
431.709	33.81
432.066	33.74
432.423	33.67
432.78	33.58
433.137	33.48
433.493	33.38
433.85	33.29
434.207	33.17
434.564	33.07
434.92	32.96
435.277	32.84
435.634	32.68
435.99	32.55
436.347	32.43
436.703	32.29
437.06	32.16
437.416	32.02
437.773	31.94
438.129	31.82
438.485	31.74
438.841	31.63
439.198	31.52
439.554	31.43
439.91	31.31
440.266	31.22
440.622	31.11
440.978	31
441.334	30.86
441.69	30.72
442.046	30.55
442.402	30.37
442.758	30.19
443.113	30.04
443.469	29.92
443.825	29.79
444.181	29.66
444.536	29.54
444.892	29.43
445.247	29.3
445.603	29.21
445.958	29.09
446.314	28.99
446.669	28.89
447.025	28.78
447.38	28.72
447.735	28.62
448.09	28.53
448.446	28.43
448.801	28.31
449.156	28.2
449.511	28.09
449.866	28.02
450.221	27.92
450.576	27.8
450.931	27.64
451.286	27.47
451.641	27.32
451.995	27.18
452.35	27.04
452.705	26.92
453.06	26.79
453.414	26.67
453.769	26.57
454.123	26.42
454.478	26.25
454.832	26.06
455.187	25.87
455.541	25.65
455.896	25.43
456.25	25.21
456.604	25.05
456.958	24.89
457.313	24.75
457.667	24.62
458.021	24.54
458.375	24.46
458.729	24.37
459.083	24.27
459.437	24.2
459.791	24.1
460.145	24.01
460.499	23.89
460.852	23.77
461.206	23.67
461.56	23.56
461.914	23.49
462.267	23.39
462.621	23.29
462.974	23.22
463.328	23.12
463.681	23.03
464.035	22.9
464.388	22.79
464.742	22.66
465.095	22.54
465.448	22.4
465.801	22.27
466.155	22.13
466.508	22.01
466.861	21.87
467.214	21.77
467.567	21.66
467.92	21.56
468.273	21.48
468.626	21.35
468.979	21.23
469.332	21.1
469.684	20.98
470.037	20.86
470.39	20.72
470.743	20.61
471.095	20.49
471.448	20.4
471.8	20.29
472.153	20.19
472.505	20.06
472.858	19.95
473.21	19.81
473.562	19.7
473.915	19.58
474.267	19.47
474.619	19.34
474.971	19.24
475.324	19.13
475.676	19.03
476.028	18.92
476.38	18.84
476.732	18.74
477.084	18.64
477.436	18.53
477.787	18.41
478.139	18.29
478.491	18.15
478.843	18.01
479.195	17.84
479.546	17.64
479.898	17.39
480.249	17.16
480.601	16.98
480.952	16.82
481.304	16.73
481.655	16.64
482.007	16.57
482.358	16.5
482.709	16.44
483.061	16.36
483.412	16.28
483.763	16.19
484.114	16.09
484.465	16.01
484.816	15.93
485.167	15.88
485.518	15.82
485.869	15.79
486.22	15.74
486.571	15.71
486.922	15.67
487.272	15.6
487.623	15.51
487.974	15.4
488.324	15.29
488.675	15.18
489.025	15.1
489.376	15.03
489.726	14.97
490.077	14.91
490.427	14.86
490.778	14.81
491.128	14.78
491.478	14.75
491.828	14.71
492.179	14.67
492.529	14.62
492.879	14.56
493.229	14.49
493.579	14.41
493.929	14.33
494.279	14.25
494.629	14.22
494.979	14.18
495.328	14.13
495.678	14.1
496.028	14.08
496.378	14.01
496.727	13.94
497.077	13.86
497.426	13.8
497.776	13.73
498.125	13.68
498.475	13.63
498.824	13.56
499.174	13.49
499.523	13.44
499.872	13.38
500.221	13.33
500.571	13.28
500.92	13.23
501.269	13.18
501.618	13.13
501.967	13.07
502.316	13
502.665	12.94
503.014	12.88
503.363	12.82
503.711	12.77
504.06	12.7
504.409	12.62
504.758	12.53
505.106	12.49
505.455	12.43
505.803	12.35
506.152	12.29
506.5	12.27
506.849	12.22
507.197	12.18
507.546	12.13
507.894	12.09
508.242	12.04
508.59	11.98
508.939	11.95
509.287	11.91
509.635	11.88
509.983	11.85
510.331	11.81
510.679	11.77
511.027	11.74
511.375	11.7
511.723	11.7
512.07	11.66
512.418	11.63
512.766	11.61
513.114	11.58
513.461	11.54
513.809	11.48
514.156	11.41
514.504	11.36
514.851	11.31
515.199	11.25
515.546	11.19
515.893	11.15
516.241	11.12
516.588	11.08
516.935	11.03
517.282	11.01
517.63	10.96
517.977	10.93
518.324	10.91
518.671	10.91
519.018	10.85
519.365	10.83
519.711	10.8
520.058	10.75
520.405	10.73
520.752	10.71
521.099	10.7
521.445	10.68
521.792	10.64
522.138	10.58
522.485	10.55
522.832	10.51
523.178	10.49
523.524	10.43
523.871	10.39
524.217	10.36
524.563	10.25
524.91	10.16
525.256	10.07
525.602	9.99
525.948	9.93
526.294	9.9
526.64	9.87
526.986	9.85
527.332	9.83
527.678	9.81
528.024	9.8
528.37	9.78
528.716	9.75
529.061	9.73
529.407	9.7
529.753	9.66
530.098	9.61
530.444	9.58
530.789	9.56
531.135	9.54
531.48	9.52
531.826	9.53
532.171	9.53
532.516	9.52
532.862	9.51
533.207	9.49
533.552	9.46
533.897	9.45
534.242	9.42
534.587	9.4
534.932	9.37
535.277	9.34
535.622	9.32
535.967	9.32
536.312	9.31
536.657	9.31
537.001	9.31
537.346	9.3
537.691	9.26
538.035	9.19
538.38	9.14
538.724	9.09
539.069	9.05
539.413	9.03
539.758	9
540.102	8.98
540.446	8.96
540.791	8.94
541.135	8.93
541.479	8.91
541.823	8.89
542.167	8.88
542.512	8.86
542.856	8.83
543.2	8.8
543.543	8.77
543.887	8.74
544.231	8.72
544.575	8.71
544.919	8.71
545.262	8.72
545.606	8.72
545.95	8.71
546.293	8.71
546.637	8.7
546.98	8.7
547.324	8.67
547.667	8.66
548.011	8.62
548.354	8.59
548.697	8.55
549.04	8.52
549.384	8.5
549.727	8.48
550.07	8.47
550.413	8.44
550.756	8.43
551.099	8.39
551.442	8.39
551.785	8.37
552.128	8.35
552.47	8.33
552.813	8.31
553.156	8.29
553.499	8.26
553.841	8.21
554.184	8.18
554.526	8.17
554.869	8.12
555.211	8.1
555.554	8.08
555.896	8.07
556.238	8.04
556.581	8.01
556.923	7.96
557.265	7.93
557.607	7.9
557.949	7.85
558.291	7.82
558.633	7.75
558.975	7.72
559.317	7.69
559.659	7.65
560.001	7.6
560.343	7.57
560.685	7.54
561.026	7.5
561.368	7.43
561.71	7.36
562.051	7.36
562.393	7.34
562.734	7.29
563.076	7.25
563.417	7.21
563.759	7.16
564.1	7.16
564.441	7.12
564.782	7.1
565.124	7.08
565.465	7.05
565.806	7.05
566.147	7.01
566.488	6.97
566.829	6.93
567.17	6.92
567.511	6.88
567.851	6.83
568.192	6.79
568.533	6.8
568.874	6.79
569.214	6.75
569.555	6.71
569.895	6.67
570.236	6.65
570.576	6.63
570.917	6.6
571.257	6.56
571.598	6.54
571.938	6.51
572.278	6.49
572.618	6.49
572.959	6.45
573.299	6.41
573.639	6.38
573.979	6.36
574.319	6.33
574.659	6.31
574.999	6.27
575.339	6.25
575.678	6.21
576.018	6.17
576.358	6.14
576.698	6.11
577.037	6.08
577.377	6.04
577.716	6.02
578.056	6
578.395	5.97
578.735	5.92
579.074	5.87
579.413	5.82
579.753	5.74
580.092	5.7
580.431	5.7
580.77	5.66
581.109	5.64
581.448	5.6
581.787	5.58
582.126	5.56
582.465	5.55
582.804	5.5
583.143	5.5
583.482	5.45
583.82	5.42
584.159	5.4
584.498	5.35
584.836	5.29
585.175	5.26
585.514	5.25
585.852	5.24
586.19	5.23
586.529	5.21
586.867	5.23
587.205	5.21
587.544	5.19
587.882	5.19
588.22	5.16
588.558	5.14
588.896	5.1
589.234	5.11
589.572	5.07
589.91	5.07
590.248	5.04
590.586	5.06
590.924	5.05
591.262	5.06
591.599	5.07
591.937	5.05
592.275	5.03
592.612	5.02
592.95	5.02
593.287	5.01
593.625	5.03
593.962	5.04
594.299	5.07
594.637	5.06
594.974	5.03
595.311	5.03
595.648	5.02
595.985	5.04
596.322	5.01
596.659	5
596.996	5
597.333	4.98
597.67	4.95
598.007	4.92
598.344	4.86
598.681	4.82
599.017	4.79
599.354	4.77
599.691	4.74
600.027	4.71
600.364	4.69
600.7	4.67
601.037	4.63
601.373	4.6
601.71	4.63
602.046	4.62
602.382	4.63
602.718	4.63
603.054	4.61
603.391	4.61
603.727	4.6
604.063	4.58
604.399	4.57
604.735	4.56
605.071	4.57
605.406	4.59
605.742	4.61
606.078	4.61
606.414	4.62
606.749	4.63
607.085	4.64
607.421	4.64
607.756	4.61
608.092	4.57
608.427	4.52
608.762	4.47
609.098	4.43
609.433	4.38
609.768	4.33
610.104	4.29
610.439	4.26
610.774	4.22
611.109	4.19
611.444	4.18
611.779	4.16
612.114	4.12
612.449	4.07
612.784	4.03
613.118	4.02
613.453	3.94
613.788	3.87
614.123	3.76
614.457	3.67
614.792	3.62
615.126	3.6
615.461	3.57
615.795	3.51
616.13	3.49
616.464	3.48
616.798	3.48
617.132	3.47
617.467	3.45
617.801	3.41
618.135	3.42
618.469	3.37
618.803	3.31
619.137	3.31
619.471	3.32
619.805	3.3
620.139	3.26
620.472	3.28
620.806	3.28
621.14	3.32
621.473	3.31
621.807	3.26
622.141	3.24
622.474	3.23
622.808	3.2
623.141	3.25
623.474	3.25
623.808	3.27
624.141	3.26
624.474	3.26
624.807	3.29
625.141	3.3
625.474	3.32
625.807	3.37
626.14	3.39
626.473	3.38
626.806	3.38
627.138	3.38
627.471	3.36
627.804	3.35
628.137	3.34
628.469	3.34
628.802	3.35
629.135	3.33
629.467	3.32
629.8	3.32
630.132	3.27
630.465	3.23
630.797	3.21
631.129	3.22
631.461	3.21
631.794	3.19
632.126	3.13
632.458	3.1
632.79	3.08
633.122	3.06
633.454	3.05
633.786	3.05
634.118	3.03
634.45	3.03
634.781	3
635.113	2.97
635.445	2.96
635.777	2.96
636.108	2.95
636.44	2.95
636.771	2.94
637.103	2.92
637.434	2.91
637.765	2.88
638.097	2.83
638.428	2.81
638.759	2.8
639.09	2.8
639.422	2.78
639.753	2.71
640.084	2.7
640.415	2.7
640.746	2.64
641.077	2.59
641.407	2.54
641.738	2.52
642.069	2.49
642.4	2.47
642.73	2.44
643.061	2.45
643.392	2.41
643.722	2.43
644.053	2.39
644.383	2.39
644.713	2.36
645.044	2.33
645.374	2.31
645.704	2.27
646.034	2.27
646.365	2.27
646.695	2.29
647.025	2.27
647.355	2.24
647.685	2.27
648.015	2.32
648.344	2.37
648.674	2.38
649.004	2.4
649.334	2.43
649.663	2.47
649.993	2.48
650.323	2.54
650.652	2.51
650.982	2.51
651.311	2.47
651.64	2.46
651.97	2.46
652.299	2.49
652.628	2.52
652.958	2.52
653.287	2.52
