Data from pcis_p_h3_p5_Reflection_1.txt Node
Date: Wed Jul 12 17:54:42 ART 2017
User: rodoncho
Spectrometer: USB2E3644
Trigger mode: 4
Integration Time (sec): 6.000000E-2
Scans to average: 10
Electric dark correction enabled: true
Nonlinearity correction enabled: false
Boxcar width: 10
XAxis mode: Wavelengths
Number of Pixels in Spectrum: 2048
>>>>>Begin Spectral Data<<<<<
178.315	81.56
178.696	109.8
179.076	49.43
179.457	149.52
179.838	203.33
180.218	216.67
180.599	31.67
180.979	-65
181.36	152.38
181.74	89.25
182.121	152.08
182.501	79.86
182.881	90.95
183.262	52.85
183.642	291.67
184.022	218.84
184.402	123.23
184.783	91.11
185.163	93.14
185.543	85.74
185.923	79.36
186.303	91.36
186.683	96.73
187.063	91.77
187.443	101.33
187.823	103.83
188.203	102.54
188.583	105.03
188.963	109.72
189.343	106.82
189.723	106.63
190.102	104.48
190.482	103.2
190.862	103.93
191.242	105.78
191.621	107.3
192.001	112.43
192.38	122.67
192.76	127.7
193.14	122.74
193.519	124.1
193.898	125.84
194.278	123.4
194.657	121.86
195.037	122.01
195.416	120.76
195.795	121.09
196.175	122.37
196.554	120.19
196.933	121.02
197.312	124.64
197.692	128.04
198.071	127.71
198.45	125.13
198.829	122.63
199.208	120.67
199.587	120.21
199.966	117.71
200.345	115.36
200.724	114.45
201.103	115.58
201.482	116.84
201.86	115.97
202.239	114.47
202.618	115.16
202.997	116.65
203.375	117.99
203.754	115.92
204.133	113.99
204.511	113.14
204.89	111.63
205.269	109.67
205.647	107.37
206.026	107.74
206.404	108.45
206.782	108.42
207.161	109.04
207.539	109.8
207.918	110.88
208.296	110.75
208.674	111.89
209.052	112.23
209.431	110.85
209.809	110.68
210.187	109.99
210.565	109.36
210.943	108.81
211.321	107.73
211.699	107.56
212.077	107.05
212.455	107.72
212.833	107.99
213.211	109.52
213.589	110.54
213.967	109.97
214.345	110.3
214.722	111.09
215.1	110.34
215.478	109.49
215.855	108.29
216.233	108.15
216.611	108.06
216.988	108.29
217.366	109.02
217.743	109.61
218.121	111.75
218.498	112.37
218.876	110.73
219.253	111.13
219.631	111.43
220.008	112.35
220.385	112.87
220.762	112.03
221.14	110.52
221.517	109.8
221.894	109.66
222.271	109.86
222.648	110.23
223.025	112.02
223.402	113.14
223.78	114.91
224.157	115.97
224.533	115.51
224.91	115.87
225.287	116.11
225.664	117.23
226.041	116.04
226.418	115.07
226.795	115.79
227.171	115.45
227.548	117.72
227.925	118.76
228.301	118.25
228.678	119.72
229.055	119.86
229.431	120.91
229.808	121.3
230.184	122.17
230.561	122.85
230.937	122.07
231.313	121.58
231.69	121.12
232.066	120.05
232.442	120.33
232.819	119.43
233.195	119.37
233.571	117.65
233.947	117.73
234.323	118.88
234.699	119.84
235.075	119.27
235.451	118.97
235.827	118.15
236.203	119.11
236.579	119.27
236.955	121.25
237.331	122.31
237.707	124.07
238.083	124.56
238.459	127.47
238.834	132.3
239.21	137.04
239.586	141.72
239.961	146.43
240.337	147.99
240.713	149.9
241.088	151.71
241.464	157.85
241.839	165.88
242.215	174.78
242.59	188.03
242.965	219.83
243.341	270.12
243.716	355.84
244.091	506.6
244.467	790.85
244.842	1255.03
245.217	3703.17
245.592	51744.44
245.967	-5576.19
246.343	-6513.89
246.718	-156733.33
247.093	-15423.33
247.468	-9570.83
247.843	-4386.67
248.218	-1701.48
248.593	-979.06
248.967	-663.74
249.342	-601.71
249.717	-627.07
250.092	-662.15
250.467	-834.44
250.841	-1729.12
251.216	3966.67
251.591	1035.4
251.965	616.19
252.34	483.33
252.714	425.66
253.089	381.38
253.463	371.2
253.838	372.32
254.212	393.35
254.587	446.73
254.961	517.4
255.335	731.29
255.71	2248.31
256.084	-1137.28
256.458	-445.96
256.832	-287.64
257.206	-228.09
257.581	-198.54
257.955	-181.36
258.329	-169.71
258.703	-159.24
259.077	-149.83
259.451	-143.08
259.825	-138.53
260.199	-134.7
260.572	-130.14
260.946	-125.76
261.32	-123.95
261.694	-120.64
262.068	-118.45
262.441	-116.64
262.815	-116.37
263.189	-113.3
263.562	-118.81
263.936	-137.23
264.309	-162.57
264.683	-196.04
265.056	-218.84
265.43	-233.49
265.803	-231.66
266.176	-218.83
266.55	-216.03
266.923	-207.33
267.296	-194.1
267.67	-182.47
268.043	-164.33
268.416	-148.08
268.789	-135.67
269.162	-121.12
269.535	-111.56
269.908	-105.8
270.281	-101.46
270.654	-100.38
271.027	-103.35
271.4	-105.46
271.773	-106.49
272.146	-104.75
272.519	-99.31
272.891	-95.26
273.264	-94.15
273.637	-94.21
274.01	-94.89
274.382	-92.72
274.755	-90.83
275.127	-90.86
275.5	-91.59
275.872	-93.2
276.245	-94.65
276.617	-96.77
276.99	-99.87
277.362	-102.14
277.734	-102.2
278.107	-100.79
278.479	-95.4
278.851	-91.86
279.223	-87.74
279.596	-85.52
279.968	-84.11
280.34	-85.43
280.712	-83.26
281.084	-78.2
281.456	-71.81
281.828	-66.65
282.2	-61.67
282.572	-58.15
282.944	-55.32
283.315	-53.63
283.687	-53.28
284.059	-52.39
284.431	-50.93
284.802	-50.17
285.174	-49.38
285.546	-48.29
285.917	-48.54
286.289	-47.84
286.66	-46.63
287.032	-46.36
287.403	-45.37
287.775	-44.86
288.146	-43.97
288.518	-43.86
288.889	-43.66
289.26	-44.55
289.632	-44.89
290.003	-45.79
290.374	-46.62
290.745	-47.2
291.116	-45.95
291.487	-43.66
291.858	-42.56
292.229	-41.79
292.6	-40.21
292.971	-38.72
293.342	-36.36
293.713	-33.61
294.084	-32.59
294.455	-31.88
294.826	-30.54
295.196	-30.83
295.567	-30.82
295.938	-30.89
296.308	-31.3
296.679	-30.8
297.05	-30.29
297.42	-29.96
297.791	-29.34
298.161	-28.8
298.532	-28.43
298.902	-28.19
299.272	-27.87
299.643	-27.03
300.013	-26.61
300.383	-26.36
300.754	-25.86
301.124	-26.62
301.494	-27.04
301.864	-27.02
302.234	-26.63
302.604	-27.1
302.974	-26.58
303.344	-26.54
303.714	-26.22
304.084	-25.07
304.454	-24.71
304.824	-23.51
305.194	-22.55
305.563	-21.67
305.933	-20.06
306.303	-18.86
306.673	-18.44
307.042	-18.06
307.412	-17.25
307.781	-16.36
308.151	-15.67
308.521	-15.29
308.89	-14.52
309.259	-13.86
309.629	-13.47
309.998	-13.61
310.368	-13.12
310.737	-12.51
311.106	-11.91
311.475	-11.25
311.845	-11.12
312.214	-10.75
312.583	-10.58
312.952	-10.41
313.321	-10.4
313.69	-10.68
314.059	-11.01
314.428	-10.97
314.797	-10.89
315.166	-11.78
315.535	-12.36
315.904	-12.83
316.272	-12.92
316.641	-13.21
317.01	-13.47
317.379	-13.13
317.747	-12.9
318.116	-12.63
318.484	-12.55
318.853	-11.89
319.221	-11.72
319.59	-11.31
319.958	-11.13
320.327	-10.83
320.695	-10.63
321.063	-10.55
321.432	-10.25
321.8	-9.72
322.168	-8.84
322.536	-8.09
322.905	-6.96
323.273	-6.15
323.641	-5.31
324.009	-5.02
324.377	-4.46
324.745	-4.13
325.113	-4.09
325.481	-3.4
325.849	-2.75
326.216	-2.14
326.584	-1.76
326.952	-1.18
327.32	-0.69
327.687	-0.3
328.055	-0.04
328.423	0.34
328.79	0.86
329.158	1.25
329.525	1.78
329.893	1.99
330.26	2.34
330.628	2.56
330.995	2.77
331.362	2.86
331.73	3.29
332.097	3.65
332.464	4
332.831	4.36
333.199	4.75
333.566	4.77
333.933	4.76
334.3	4.74
334.667	4.83
335.034	5.01
335.401	5.22
335.768	5.32
336.135	5.55
336.502	5.69
336.868	5.93
337.235	6.1
337.602	6.39
337.969	6.62
338.335	6.79
338.702	6.94
339.069	7.26
339.435	7.52
339.802	7.59
340.168	7.82
340.535	8.12
340.901	8.19
341.267	8.34
341.634	8.67
342	8.95
342.366	9.18
342.733	9.32
343.099	9.44
343.465	9.68
343.831	9.83
344.197	10.04
344.563	10.18
344.929	10.35
345.295	10.51
345.661	10.64
346.027	10.77
346.393	10.94
346.759	11.03
347.125	11.04
347.491	11.25
347.856	11.36
348.222	11.42
348.588	11.42
348.953	11.65
349.319	11.76
349.684	11.96
350.05	12.16
350.415	12.31
350.781	12.47
351.146	12.66
351.512	12.67
351.877	12.86
352.242	12.88
352.608	12.94
352.973	12.91
353.338	12.85
353.703	13.01
354.068	13.13
354.433	13.31
354.798	13.39
355.164	13.49
355.528	13.52
355.893	13.58
356.258	13.7
356.623	13.77
356.988	13.84
357.353	13.89
357.718	13.92
358.082	14.06
358.447	14.23
358.812	14.26
359.176	14.4
359.541	14.36
359.905	14.44
360.27	14.55
360.634	14.72
360.999	14.9
361.363	14.93
361.728	14.96
362.092	14.92
362.456	14.93
362.821	15.01
363.185	15.11
363.549	15.23
363.913	15.34
364.277	15.32
364.641	15.35
365.005	15.42
365.369	15.36
365.733	15.32
366.097	15.45
366.461	15.46
366.825	15.52
367.189	15.73
367.553	15.77
367.916	15.82
368.28	15.86
368.644	15.96
369.007	16.02
369.371	16.09
369.734	16.11
370.098	16.2
370.461	16.25
370.825	16.28
371.188	16.42
371.552	16.47
371.915	16.66
372.278	16.82
372.642	16.94
373.005	17.04
373.368	17.11
373.731	17.05
374.094	17.09
374.457	17.12
374.82	17.09
375.183	17.16
375.546	17.19
375.909	17.18
376.272	17.13
376.635	17.1
376.998	17.12
377.361	17.21
377.723	17.31
378.086	17.32
378.449	17.42
378.811	17.41
379.174	17.49
379.537	17.43
379.899	17.44
380.262	17.43
380.624	17.47
380.987	17.51
381.349	17.47
381.711	17.51
382.074	17.5
382.436	17.51
382.798	17.49
383.16	17.44
383.522	17.46
383.884	17.54
384.247	17.62
384.609	17.64
384.971	17.65
385.333	17.61
385.695	17.64
386.056	17.6
386.418	17.56
386.78	17.53
387.142	17.56
387.504	17.48
387.865	17.49
388.227	17.44
388.589	17.41
388.95	17.45
389.312	17.45
389.673	17.46
390.035	17.45
390.396	17.45
390.758	17.43
391.119	17.41
391.48	17.37
391.842	17.33
392.203	17.27
392.564	17.21
392.925	17.18
393.286	17.08
393.648	17.07
394.009	16.99
394.37	16.91
394.731	16.84
395.092	16.79
395.452	16.73
395.813	16.72
396.174	16.67
396.535	16.59
396.896	16.52
397.257	16.46
397.617	16.43
397.978	16.38
398.338	16.41
398.699	16.38
399.06	16.33
399.42	16.27
399.781	16.29
400.141	16.21
400.501	16.15
400.862	16.15
401.222	16.09
401.582	16.07
401.943	16.05
402.303	16.03
402.663	16.06
403.023	16
403.383	15.95
403.743	15.94
404.103	15.96
404.463	16
404.823	16.02
405.183	15.99
405.543	16.04
405.903	15.98
406.262	15.97
406.622	15.95
406.982	15.95
407.342	15.96
407.701	15.98
408.061	15.99
408.42	16.02
408.78	16.05
409.139	16.04
409.499	16.05
409.858	16.06
410.217	16.02
410.577	16.04
410.936	16.08
411.295	16.07
411.655	16.03
412.014	15.97
412.373	15.87
412.732	15.81
413.091	15.69
413.45	15.64
413.809	15.59
414.168	15.5
414.527	15.41
414.886	15.25
415.245	15.17
415.603	15.04
415.962	14.88
416.321	14.74
416.679	14.64
417.038	14.51
417.397	14.37
417.755	14.22
418.114	14.11
418.472	14
418.831	13.92
419.189	13.83
419.547	13.76
419.906	13.68
420.264	13.6
420.622	13.51
420.981	13.43
421.339	13.34
421.697	13.29
422.055	13.23
422.413	13.2
422.771	13.13
423.129	13.12
423.487	13.1
423.845	13.08
424.203	13.06
424.56	13.04
424.918	13.04
425.276	13.08
425.634	13.08
425.991	13.08
426.349	13.08
426.707	13.1
427.064	13.1
427.422	13.11
427.779	13.13
428.137	13.17
428.494	13.21
428.851	13.26
429.209	13.28
429.566	13.3
429.923	13.31
430.28	13.33
430.637	13.32
430.995	13.34
431.352	13.37
431.709	13.39
432.066	13.45
432.423	13.47
432.78	13.48
433.137	13.51
433.493	13.53
433.85	13.57
434.207	13.57
434.564	13.59
434.92	13.62
435.277	13.64
435.634	13.65
435.99	13.64
436.347	13.64
436.703	13.66
437.06	13.67
437.416	13.67
437.773	13.69
438.129	13.7
438.485	13.69
438.841	13.68
439.198	13.7
439.554	13.66
439.91	13.67
440.266	13.63
440.622	13.6
440.978	13.58
441.334	13.54
441.69	13.48
442.046	13.41
442.402	13.32
442.758	13.22
443.113	13.14
443.469	13.07
443.825	13
444.181	12.95
444.536	12.89
444.892	12.83
445.247	12.79
445.603	12.74
445.958	12.7
446.314	12.65
446.669	12.59
447.025	12.53
447.38	12.47
447.735	12.43
448.09	12.38
448.446	12.3
448.801	12.24
449.156	12.2
449.511	12.18
449.866	12.16
450.221	12.16
450.576	12.15
450.931	12.13
451.286	12.12
451.641	12.1
451.995	12.08
452.35	12.1
452.705	12.08
453.06	12.09
453.414	12.1
453.769	12.1
454.123	12.09
454.478	12.11
454.832	12.14
455.187	12.15
455.541	12.15
455.896	12.14
456.25	12.16
456.604	12.18
456.958	12.2
457.313	12.23
457.667	12.28
458.021	12.34
458.375	12.41
458.729	12.47
459.083	12.53
459.437	12.6
459.791	12.62
460.145	12.68
460.499	12.75
460.852	12.82
461.206	12.9
461.56	13
461.914	13.08
462.267	13.16
462.621	13.3
462.974	13.44
463.328	13.62
463.681	13.78
464.035	13.98
464.388	14.16
464.742	14.3
465.095	14.44
465.448	14.57
465.801	14.69
466.155	14.79
466.508	14.88
466.861	14.96
467.214	15.08
467.567	15.18
467.92	15.25
468.273	15.34
468.626	15.4
468.979	15.45
469.332	15.5
469.684	15.56
470.037	15.58
470.39	15.63
470.743	15.69
471.095	15.75
471.448	15.79
471.8	15.81
472.153	15.85
472.505	15.86
472.858	15.85
473.21	15.82
473.562	15.78
473.915	15.72
474.267	15.69
474.619	15.6
474.971	15.52
475.324	15.43
475.676	15.32
476.028	15.25
476.38	15.15
476.732	15.06
477.084	14.94
477.436	14.82
477.787	14.69
478.139	14.54
478.491	14.38
478.843	14.23
479.195	14.06
479.546	13.84
479.898	13.57
480.249	13.33
480.601	13.14
480.952	13.01
481.304	12.92
481.655	12.85
482.007	12.8
482.358	12.77
482.709	12.74
483.061	12.7
483.412	12.66
483.763	12.63
484.114	12.61
484.465	12.59
484.816	12.58
485.167	12.58
485.518	12.59
485.869	12.61
486.22	12.63
486.571	12.66
486.922	12.72
487.272	12.78
487.623	12.88
487.974	12.99
488.324	13.11
488.675	13.23
489.025	13.34
489.376	13.45
489.726	13.55
490.077	13.65
490.427	13.77
490.778	13.92
491.128	14.1
491.478	14.28
491.828	14.5
492.179	14.73
492.529	14.96
492.879	15.2
493.229	15.42
493.579	15.64
493.929	15.86
494.279	16.08
494.629	16.35
494.979	16.67
495.328	17.06
495.678	17.47
496.028	17.9
496.378	18.29
496.727	18.67
497.077	19.04
497.426	19.4
497.776	19.74
498.125	20.06
498.475	20.38
498.824	20.69
499.174	20.99
499.523	21.3
499.872	21.63
500.221	21.95
500.571	22.35
500.92	22.76
501.269	23.16
501.618	23.52
501.967	23.91
502.316	24.28
502.665	24.64
503.014	25
503.363	25.33
503.711	25.67
504.06	25.99
504.409	26.28
504.758	26.58
505.106	26.88
505.455	27.18
505.803	27.44
506.152	27.7
506.5	27.97
506.849	28.22
507.197	28.45
507.546	28.7
507.894	28.93
508.242	29.11
508.59	29.26
508.939	29.44
509.287	29.61
509.635	29.79
509.983	29.97
510.331	30.11
510.679	30.25
511.027	30.37
511.375	30.51
511.723	30.66
512.07	30.81
512.418	30.92
512.766	31.04
513.114	31.19
513.461	31.31
513.809	31.44
514.156	31.52
514.504	31.66
514.851	31.73
515.199	31.8
515.546	31.91
515.893	31.99
516.241	32.11
516.588	32.22
516.935	32.3
517.282	32.33
517.63	32.42
517.977	32.5
518.324	32.57
518.671	32.62
519.018	32.67
519.365	32.73
519.711	32.8
520.058	32.84
520.405	32.88
520.752	32.91
521.099	32.96
521.445	33.03
521.792	33.08
522.138	33.12
522.485	33.19
522.832	33.25
523.178	33.33
523.524	33.39
523.871	33.41
524.217	33.44
524.563	33.5
524.91	33.55
525.256	33.6
525.602	33.64
525.948	33.66
526.294	33.66
526.64	33.66
526.986	33.66
527.332	33.69
527.678	33.69
528.024	33.71
528.37	33.72
528.716	33.72
529.061	33.72
529.407	33.76
529.753	33.78
530.098	33.78
530.444	33.77
530.789	33.77
531.135	33.8
531.48	33.83
531.826	33.85
532.171	33.85
532.516	33.86
532.862	33.88
533.207	33.89
533.552	33.93
533.897	33.95
534.242	33.98
534.587	33.97
534.932	34.01
535.277	34.03
535.622	34.06
535.967	34.11
536.312	34.13
536.657	34.15
537.001	34.17
537.346	34.22
537.691	34.29
538.035	34.29
538.38	34.3
538.724	34.26
539.069	34.25
539.413	34.26
539.758	34.26
540.102	34.26
540.446	34.27
540.791	34.29
541.135	34.3
541.479	34.31
541.823	34.34
542.167	34.35
542.512	34.34
542.856	34.32
543.2	34.31
543.543	34.33
543.887	34.35
544.231	34.37
544.575	34.37
544.919	34.36
545.262	34.39
545.606	34.41
545.95	34.44
546.293	34.48
546.637	34.51
546.98	34.55
547.324	34.57
547.667	34.6
548.011	34.58
548.354	34.6
548.697	34.58
549.04	34.58
549.384	34.57
549.727	34.58
550.07	34.61
550.413	34.6
550.756	34.62
551.099	34.62
551.442	34.6
551.785	34.6
552.128	34.62
552.47	34.59
552.813	34.56
553.156	34.58
553.499	34.56
553.841	34.51
554.184	34.5
554.526	34.48
554.869	34.47
555.211	34.5
555.554	34.49
555.896	34.47
556.238	34.48
556.581	34.49
556.923	34.5
557.265	34.47
557.607	34.47
557.949	34.45
558.291	34.39
558.633	34.37
558.975	34.33
559.317	34.31
559.659	34.3
560.001	34.3
560.343	34.24
560.685	34.23
561.026	34.24
561.368	34.2
561.71	34.14
562.051	34.13
562.393	34.11
562.734	34.09
563.076	34.09
563.417	34.05
563.759	34.02
564.1	33.98
564.441	34
564.782	33.97
565.124	33.92
565.465	33.93
565.806	33.93
566.147	33.93
566.488	33.9
566.829	33.87
567.17	33.86
567.511	33.88
567.851	33.88
568.192	33.84
568.533	33.83
568.874	33.87
569.214	33.84
569.555	33.82
569.895	33.8
570.236	33.77
570.576	33.76
570.917	33.73
571.257	33.73
571.598	33.68
571.938	33.67
572.278	33.64
572.618	33.64
572.959	33.63
573.299	33.62
573.639	33.61
573.979	33.62
574.319	33.58
574.659	33.55
574.999	33.52
575.339	33.52
575.678	33.47
576.018	33.41
576.358	33.4
576.698	33.38
577.037	33.36
577.377	33.36
577.716	33.33
578.056	33.34
578.395	33.32
578.735	33.3
579.074	33.27
579.413	33.29
579.753	33.26
580.092	33.26
580.431	33.22
580.77	33.24
581.109	33.21
581.448	33.22
581.787	33.21
582.126	33.17
582.465	33.18
582.804	33.21
583.143	33.19
583.482	33.19
583.82	33.15
584.159	33.12
584.498	33.08
584.836	33.05
585.175	33.04
585.514	33.01
585.852	33
586.19	33.02
586.529	33.05
586.867	33.04
587.205	33.04
587.544	33.05
587.882	33.01
588.22	32.97
588.558	32.94
588.896	32.95
589.234	32.93
589.572	32.89
589.91	32.89
590.248	32.94
590.586	32.92
590.924	32.92
591.262	32.92
591.599	32.92
591.937	32.95
592.275	32.93
592.612	32.93
592.95	32.94
593.287	32.92
593.625	32.91
593.962	32.94
594.299	32.91
594.637	32.93
594.974	32.92
595.311	32.95
595.648	32.95
595.985	32.92
596.322	32.95
596.659	32.94
596.996	32.91
597.333	32.9
597.67	32.85
598.007	32.83
598.344	32.8
598.681	32.79
599.017	32.75
599.354	32.76
599.691	32.7
600.027	32.66
600.364	32.68
600.7	32.66
601.037	32.62
601.373	32.63
601.71	32.63
602.046	32.63
602.382	32.64
602.718	32.66
603.054	32.68
603.391	32.6
603.727	32.62
604.063	32.6
604.399	32.59
604.735	32.61
605.071	32.65
605.406	32.69
605.742	32.71
606.078	32.73
606.414	32.72
606.749	32.81
607.085	32.8
607.421	32.77
607.756	32.75
608.092	32.71
608.427	32.65
608.762	32.6
609.098	32.57
609.433	32.51
609.768	32.47
610.104	32.46
610.439	32.52
610.774	32.52
611.109	32.51
611.444	32.47
611.779	32.43
612.114	32.4
612.449	32.33
612.784	32.31
613.118	32.25
613.453	32.19
613.788	32.13
614.123	32.07
614.457	32.03
614.792	32
615.126	32.02
615.461	32.01
615.795	32
616.13	32
616.464	32.03
616.798	32.02
617.132	32.03
617.467	31.99
617.801	31.93
618.135	31.99
618.469	32.03
618.803	32.02
619.137	31.97
619.471	31.98
619.805	31.96
620.139	31.96
620.472	31.99
620.806	31.93
621.14	31.93
621.473	31.92
621.807	31.92
622.141	31.93
622.474	31.96
622.808	31.92
623.141	31.94
623.474	31.96
623.808	32
624.141	31.99
624.474	32.04
624.807	32.07
625.141	32.05
625.474	32.05
625.807	32.11
626.14	32.15
626.473	32.17
626.806	32.2
627.138	32.21
627.471	32.22
627.804	32.26
628.137	32.32
628.469	32.33
628.802	32.29
629.135	32.26
629.467	32.26
629.8	32.31
630.132	32.33
630.465	32.3
630.797	32.28
631.129	32.27
631.461	32.25
631.794	32.22
632.126	32.21
632.458	32.23
632.79	32.22
633.122	32.23
633.454	32.18
633.786	32.2
634.118	32.13
634.45	32.08
634.781	32.08
635.113	32.05
635.445	32.07
635.777	32.1
636.108	32.13
636.44	32.13
636.771	32.06
637.103	32.03
637.434	32.01
637.765	31.95
638.097	31.9
638.428	31.87
638.759	31.89
639.09	31.89
639.422	31.87
639.753	31.86
640.084	31.83
640.415	31.79
640.746	31.76
641.077	31.77
641.407	31.79
641.738	31.76
642.069	31.76
642.4	31.76
642.73	31.76
