Data from pcis_c_h2_p5_Reflection_3.txt Node
Date: Wed Jul 12 17:42:32 ART 2017
User: rodoncho
Spectrometer: USB2E3644
Trigger mode: 4
Integration Time (sec): 6.000000E-2
Scans to average: 10
Electric dark correction enabled: true
Nonlinearity correction enabled: false
Boxcar width: 10
XAxis mode: Wavelengths
Number of Pixels in Spectrum: 2048
>>>>>Begin Spectral Data<<<<<
178.315	36.5
178.696	83.54
179.076	82.46
179.457	106.02
179.838	63.73
180.218	51.48
180.599	-23.08
180.979	-210
181.36	60
181.74	-92.31
182.121	900
182.501	88.98
182.881	85.98
183.262	63.41
183.642	13.85
184.022	209.59
184.402	91.69
184.783	106.26
185.163	145.84
185.543	137.08
185.923	138.97
186.303	140.87
186.683	138.44
187.063	128.96
187.443	133.45
187.823	131.36
188.203	136.77
188.583	143.27
188.963	136.72
189.343	132.44
189.723	125.97
190.102	128.01
190.482	130.26
190.862	135.28
191.242	130.94
191.621	129.95
192.001	130
192.38	131.68
192.76	129.17
193.14	120.09
193.519	116.83
193.898	113.62
194.278	111.38
194.657	111.73
195.037	113.67
195.416	112.87
195.795	109.94
196.175	107.57
196.554	106.28
196.933	106.35
197.312	108.4
197.692	109.17
198.071	108.76
198.45	106.58
198.829	103.9
199.208	104.17
199.587	105.71
199.966	105.53
200.345	106.75
200.724	106.03
201.103	105.8
201.482	105.23
201.86	107.69
202.239	110.89
202.618	111.45
202.997	111.04
203.375	110.99
203.754	111.58
204.133	111.13
204.511	110.06
204.89	109.25
205.269	106.98
205.647	107.65
206.026	108.65
206.404	108.6
206.782	107.74
207.161	108.12
207.539	107.68
207.918	107.08
208.296	106.33
208.674	106.8
209.052	107.76
209.431	108.42
209.809	106.07
210.187	104.79
210.565	104.86
210.943	105.03
211.321	104.73
211.699	103.9
212.077	103.94
212.455	106.14
212.833	107.66
213.211	108.37
213.589	107.01
213.967	105.1
214.345	104.71
214.722	105.02
215.1	105
215.478	104.77
215.855	103.38
216.233	102.69
216.611	103.09
216.988	103.33
217.366	103.54
217.743	104.43
218.121	104.03
218.498	102.96
218.876	102.71
219.253	102.04
219.631	103.5
220.008	105.01
220.385	103.92
220.762	103.56
221.14	103.43
221.517	103.49
221.894	104.02
222.271	105.93
222.648	106.52
223.025	106.31
223.402	105.88
223.78	107.25
224.157	108.28
224.533	108.63
224.91	108.9
225.287	109.13
225.664	110.43
226.041	111.24
226.418	111.98
226.795	112.36
227.171	113.61
227.548	113.09
227.925	112.08
228.301	112.97
228.678	113.45
229.055	115.29
229.431	116.11
229.808	116.74
230.184	114.46
230.561	114.55
230.937	115.66
231.313	117.1
231.69	117.43
232.066	118.68
232.442	118.68
232.819	119.71
233.195	120.69
233.571	120.75
233.947	120.09
234.323	119.61
234.699	119.41
235.075	119.28
235.451	120.27
235.827	120.63
236.203	120.39
236.579	120.39
236.955	120.67
237.331	122.48
237.707	123.35
238.083	127.24
238.459	131.21
238.834	137.09
239.21	143.55
239.586	150.33
239.961	154.03
240.337	159.45
240.713	162.59
241.088	165.15
241.464	166.66
241.839	171.65
242.215	180.77
242.59	194.14
242.965	225.12
243.341	284.71
243.716	388.21
244.091	552.49
244.467	793.04
244.842	1213.29
245.217	2289.98
245.592	4013.83
245.967	6978.62
246.343	7003.45
246.718	3133.85
247.093	2435.94
247.468	2547.27
247.843	3698.49
248.218	51078.95
248.593	-3120.58
248.967	-1443.16
249.342	-1097.49
249.717	-936.51
250.092	-956.08
250.467	-1290.77
250.841	-3773.31
251.216	1772.52
251.591	749.17
251.965	512.51
252.34	431.28
252.714	391.32
253.089	356.68
253.463	345.44
253.838	355.68
254.212	364.74
254.587	396.47
254.961	452.18
255.335	593.92
255.71	1444.63
256.084	-1361.01
256.458	-449.93
256.832	-289.14
257.206	-231.45
257.581	-203.99
257.955	-187.45
258.329	-172.46
258.703	-162.73
259.077	-151.2
259.451	-143.97
259.825	-134.53
260.199	-129.21
260.572	-124.18
260.946	-118.29
261.32	-114.76
261.694	-112.7
262.068	-111.01
262.441	-110.1
262.815	-107.98
263.189	-108.07
263.562	-115.83
263.936	-137.12
264.309	-172.32
264.683	-208.37
265.056	-229.62
265.43	-240.37
265.803	-234.37
266.176	-229.08
266.55	-221.19
266.923	-218.28
267.296	-210.6
267.67	-196.14
268.043	-177.93
268.416	-161.34
268.789	-144.87
269.162	-127.6
269.535	-117.3
269.908	-108.63
270.281	-103.98
270.654	-103.61
271.027	-106.76
271.4	-108.67
271.773	-108.52
272.146	-104.7
272.519	-101.64
272.891	-99.23
273.264	-98.97
273.637	-98.45
274.01	-97.68
274.382	-95.48
274.755	-92.07
275.127	-90.45
275.5	-92.24
275.872	-92.77
276.245	-94.02
276.617	-97.85
276.99	-104.7
277.362	-108.07
277.734	-109.39
278.107	-108.36
278.479	-103.49
278.851	-98.84
279.223	-93.68
279.596	-90.92
279.968	-90.6
280.34	-90.99
280.712	-88.76
281.084	-82.88
281.456	-76.2
281.828	-70.71
282.2	-65.61
282.572	-62.48
282.944	-59.54
283.315	-57.12
283.687	-55.98
284.059	-55.22
284.431	-53.84
284.802	-52.35
285.174	-50.83
285.546	-49.84
285.917	-49.36
286.289	-48.13
286.66	-46.43
287.032	-46.28
287.403	-45.13
287.775	-44.16
288.146	-43.22
288.518	-43.15
288.889	-43.35
289.26	-44.68
289.632	-45.9
290.003	-47.79
290.374	-49.23
290.745	-50.36
291.116	-50.42
291.487	-49.42
291.858	-48.05
292.229	-47.24
292.6	-45.32
292.971	-44.33
293.342	-41.96
293.713	-39.5
294.084	-38.51
294.455	-38.08
294.826	-37.33
295.196	-37.6
295.567	-37.29
295.938	-36.97
296.308	-36.71
296.679	-36.23
297.05	-35.3
297.42	-34.54
297.791	-33.47
298.161	-32.39
298.532	-31.46
298.902	-30.94
299.272	-30.54
299.643	-30.04
300.013	-29.28
300.383	-29.13
300.754	-28.39
301.124	-28.6
301.494	-28.65
301.864	-28.58
302.234	-28.74
302.604	-28.9
302.974	-28.58
303.344	-28.33
303.714	-28.01
304.084	-27.59
304.454	-27.23
304.824	-26.55
305.194	-25.88
305.563	-25.37
305.933	-24.28
306.303	-23.18
306.673	-22.65
307.042	-21.92
307.412	-21.21
307.781	-20.3
308.151	-19.53
308.521	-19.14
308.89	-18.83
309.259	-18.49
309.629	-18.31
309.998	-17.96
310.368	-17.72
310.737	-17.4
311.106	-17.25
311.475	-16.65
311.845	-16.24
312.214	-15.89
312.583	-15.85
312.952	-15.73
313.321	-15.46
313.69	-15.78
314.059	-16.23
314.428	-16.25
314.797	-16.56
315.166	-16.69
315.535	-17.16
315.904	-17.55
316.272	-17.75
316.641	-18.21
317.01	-18.54
317.379	-18.62
317.747	-18.45
318.116	-17.91
318.484	-17.49
318.853	-17
319.221	-16.78
319.59	-16.48
319.958	-16.1
320.327	-15.61
320.695	-15.2
321.063	-14.97
321.432	-14.3
321.8	-13.81
322.168	-12.99
322.536	-12.15
322.905	-11.52
323.273	-11.17
323.641	-10.67
324.009	-10.64
324.377	-10.12
324.745	-9.65
325.113	-9.28
325.481	-8.88
325.849	-8.52
326.216	-8.06
326.584	-7.51
326.952	-7.18
327.32	-7.01
327.687	-6.71
328.055	-6.42
328.423	-6.05
328.79	-5.73
329.158	-5.63
329.525	-5.18
329.893	-4.95
330.26	-4.99
330.628	-5.16
330.995	-4.83
331.362	-4.5
331.73	-3.89
332.097	-3.69
332.464	-3.54
332.831	-3.25
333.199	-2.95
333.566	-2.79
333.933	-2.93
334.3	-3.05
334.667	-2.96
335.034	-2.75
335.401	-2.82
335.768	-2.92
336.135	-3.03
336.502	-2.94
336.868	-2.77
337.235	-2.75
337.602	-2.47
337.969	-2.25
338.335	-1.84
338.702	-1.6
339.069	-1.41
339.435	-1.2
339.802	-1.03
340.168	-0.82
340.535	-0.68
340.901	-0.63
341.267	-0.43
341.634	0.06
342	0.32
342.366	0.45
342.733	0.65
343.099	0.92
343.465	1.31
343.831	1.65
344.197	1.94
344.563	1.96
344.929	2.21
345.295	2.39
345.661	2.61
346.027	2.71
346.393	2.76
346.759	2.81
347.125	2.84
347.491	3.02
347.856	3.09
348.222	3.2
348.588	3.36
348.953	3.33
349.319	3.4
349.684	3.48
350.05	3.6
350.415	3.72
350.781	3.83
351.146	3.84
351.512	3.81
351.877	3.8
352.242	3.91
352.608	3.99
352.973	4
353.338	4.06
353.703	4.22
354.068	4.39
354.433	4.52
354.798	4.69
355.164	4.82
355.528	4.9
355.893	5.01
356.258	5.16
356.623	5.33
356.988	5.36
357.353	5.51
357.718	5.64
358.082	5.74
358.447	5.85
358.812	5.97
359.176	6.1
359.541	6.25
359.905	6.42
360.27	6.59
360.634	6.67
360.999	6.74
361.363	6.84
361.728	6.88
362.092	6.93
362.456	6.96
362.821	7
363.185	7.11
363.549	7.16
363.913	7.14
364.277	7.19
364.641	7.22
365.005	7.25
365.369	7.32
365.733	7.41
366.097	7.56
366.461	7.63
366.825	7.74
367.189	7.82
367.553	7.92
367.916	7.96
368.28	8.06
368.644	8.24
369.007	8.33
369.371	8.41
369.734	8.53
370.098	8.67
370.461	8.8
370.825	8.94
371.188	9.15
371.552	9.32
371.915	9.42
372.278	9.61
372.642	9.8
373.005	9.93
373.368	10.01
373.731	10.09
374.094	10.19
374.457	10.26
374.82	10.34
375.183	10.46
375.546	10.58
375.909	10.63
376.272	10.65
376.635	10.68
376.998	10.74
377.361	10.77
377.723	10.85
378.086	10.89
378.449	10.97
378.811	11.03
379.174	11.12
379.537	11.24
379.899	11.37
380.262	11.42
380.624	11.38
380.987	11.39
381.349	11.47
381.711	11.55
382.074	11.62
382.436	11.67
382.798	11.6
383.16	11.59
383.522	11.63
383.884	11.73
384.247	11.82
384.609	11.91
384.971	11.96
385.333	11.98
385.695	12
386.056	11.98
386.418	11.93
386.78	11.95
387.142	11.95
387.504	11.93
387.865	11.89
388.227	11.99
388.589	12.06
388.95	12.05
389.312	12.04
389.673	12.07
390.035	12.09
390.396	12.14
390.758	12.16
391.119	12.17
391.48	12.14
391.842	12.1
392.203	12.08
392.564	12.09
392.925	12.09
393.286	12.08
393.648	12.1
394.009	12.09
394.37	12.08
394.731	12.09
395.092	12.04
395.452	12.07
395.813	12.09
396.174	12.09
396.535	12.08
396.896	12.06
397.257	12.05
397.617	12.04
397.978	12.09
398.338	12.12
398.699	12.18
399.06	12.2
399.42	12.2
399.781	12.2
400.141	12.19
400.501	12.19
400.862	12.23
401.222	12.23
401.582	12.27
401.943	12.26
402.303	12.26
402.663	12.29
403.023	12.3
403.383	12.27
403.743	12.28
404.103	12.33
404.463	12.4
404.823	12.41
405.183	12.41
405.543	12.42
405.903	12.41
406.262	12.38
406.622	12.4
406.982	12.42
407.342	12.42
407.701	12.45
408.061	12.44
408.42	12.41
408.78	12.44
409.139	12.45
409.499	12.47
409.858	12.5
410.217	12.52
410.577	12.53
410.936	12.55
411.295	12.56
411.655	12.54
412.014	12.51
412.373	12.48
412.732	12.48
413.091	12.43
413.45	12.41
413.809	12.38
414.168	12.33
414.527	12.28
414.886	12.19
415.245	12.13
415.603	12.09
415.962	12.02
416.321	11.92
416.679	11.83
417.038	11.77
417.397	11.68
417.755	11.59
418.114	11.52
418.472	11.45
418.831	11.41
419.189	11.36
419.547	11.3
419.906	11.25
420.264	11.19
420.622	11.15
420.981	11.1
421.339	11.05
421.697	11
422.055	10.97
422.413	10.97
422.771	10.96
423.129	10.94
423.487	10.95
423.845	10.96
424.203	10.97
424.56	10.97
424.918	10.99
425.276	11.02
425.634	11.05
425.991	11.09
426.349	11.1
426.707	11.11
427.064	11.13
427.422	11.19
427.779	11.24
428.137	11.27
428.494	11.34
428.851	11.4
429.209	11.42
429.566	11.44
429.923	11.46
430.28	11.47
430.637	11.49
430.995	11.5
431.352	11.5
431.709	11.52
432.066	11.54
432.423	11.55
432.78	11.56
433.137	11.58
433.493	11.59
433.85	11.61
434.207	11.6
434.564	11.62
434.92	11.59
435.277	11.6
435.634	11.61
435.99	11.61
436.347	11.62
436.703	11.63
437.06	11.64
437.416	11.65
437.773	11.65
438.129	11.64
438.485	11.63
438.841	11.63
439.198	11.64
439.554	11.65
439.91	11.64
440.266	11.63
440.622	11.61
440.978	11.61
441.334	11.57
441.69	11.56
442.046	11.52
442.402	11.48
442.758	11.41
443.113	11.38
443.469	11.33
443.825	11.29
444.181	11.29
444.536	11.28
444.892	11.26
445.247	11.24
445.603	11.24
445.958	11.24
446.314	11.21
446.669	11.18
447.025	11.16
447.38	11.14
447.735	11.13
448.09	11.12
448.446	11.09
448.801	11.08
449.156	11.08
449.511	11.08
449.866	11.1
450.221	11.15
450.576	11.16
450.931	11.17
451.286	11.18
451.641	11.18
451.995	11.17
452.35	11.16
452.705	11.19
453.06	11.21
453.414	11.24
453.769	11.27
454.123	11.28
454.478	11.27
454.832	11.28
455.187	11.27
455.541	11.26
455.896	11.26
456.25	11.26
456.604	11.25
456.958	11.25
457.313	11.27
457.667	11.28
458.021	11.31
458.375	11.35
458.729	11.39
459.083	11.41
459.437	11.45
459.791	11.49
460.145	11.52
460.499	11.57
460.852	11.59
461.206	11.65
461.56	11.69
461.914	11.75
462.267	11.79
462.621	11.87
462.974	11.95
463.328	12.05
463.681	12.16
464.035	12.28
464.388	12.38
464.742	12.47
465.095	12.57
465.448	12.66
465.801	12.74
466.155	12.81
466.508	12.9
466.861	12.96
467.214	13.01
467.567	13.09
467.92	13.14
468.273	13.2
468.626	13.25
468.979	13.31
469.332	13.33
469.684	13.38
470.037	13.42
470.39	13.48
470.743	13.52
471.095	13.57
471.448	13.6
471.8	13.64
472.153	13.66
472.505	13.68
472.858	13.68
473.21	13.68
473.562	13.66
473.915	13.66
474.267	13.65
474.619	13.62
474.971	13.55
475.324	13.51
475.676	13.48
476.028	13.43
476.38	13.38
476.732	13.34
477.084	13.31
477.436	13.24
477.787	13.18
478.139	13.1
478.491	13.01
478.843	12.91
479.195	12.82
479.546	12.7
479.898	12.55
480.249	12.41
480.601	12.28
480.952	12.21
481.304	12.13
481.655	12.08
482.007	12.04
482.358	12.01
482.709	11.98
483.061	11.94
483.412	11.93
483.763	11.91
484.114	11.9
484.465	11.89
484.816	11.88
485.167	11.88
485.518	11.88
485.869	11.89
486.22	11.92
486.571	11.93
486.922	11.96
487.272	12
487.623	12.07
487.974	12.15
488.324	12.24
488.675	12.33
489.025	12.4
489.376	12.47
489.726	12.56
490.077	12.64
490.427	12.73
490.778	12.81
491.128	12.91
491.478	13.04
491.828	13.17
492.179	13.31
492.529	13.47
492.879	13.62
493.229	13.75
493.579	13.88
493.929	14.01
494.279	14.15
494.629	14.31
494.979	14.49
495.328	14.69
495.678	14.93
496.028	15.16
496.378	15.37
496.727	15.6
497.077	15.8
497.426	15.98
497.776	16.12
498.125	16.3
498.475	16.48
498.824	16.63
499.174	16.78
499.523	16.94
499.872	17.11
500.221	17.28
500.571	17.46
500.92	17.64
501.269	17.82
501.618	17.98
501.967	18.14
502.316	18.3
502.665	18.47
503.014	18.6
503.363	18.76
503.711	18.94
504.06	19.07
504.409	19.19
504.758	19.33
505.106	19.47
505.455	19.57
505.803	19.68
506.152	19.77
506.5	19.87
506.849	19.98
507.197	20.04
507.546	20.13
507.894	20.23
508.242	20.33
508.59	20.41
508.939	20.5
509.287	20.59
509.635	20.66
509.983	20.72
510.331	20.81
510.679	20.88
511.027	20.93
511.375	20.99
511.723	21.07
512.07	21.13
512.418	21.21
512.766	21.3
513.114	21.38
513.461	21.45
513.809	21.52
514.156	21.58
514.504	21.68
514.851	21.73
515.199	21.79
515.546	21.83
515.893	21.88
516.241	21.92
516.588	21.97
516.935	22.02
517.282	22.08
517.63	22.12
517.977	22.16
518.324	22.23
518.671	22.28
519.018	22.3
519.365	22.34
519.711	22.37
520.058	22.41
520.405	22.44
520.752	22.48
521.099	22.51
521.445	22.54
521.792	22.55
522.138	22.61
522.485	22.69
522.832	22.74
523.178	22.79
523.524	22.83
523.871	22.86
524.217	22.87
524.563	22.88
524.91	22.92
525.256	22.91
525.602	22.91
525.948	22.91
526.294	22.94
526.64	22.93
526.986	22.96
527.332	22.96
527.678	22.97
528.024	22.98
528.37	22.99
528.716	23.01
529.061	23.03
529.407	23.04
529.753	23.04
530.098	23.06
530.444	23.08
530.789	23.1
531.135	23.12
531.48	23.15
531.826	23.18
532.171	23.19
532.516	23.24
532.862	23.28
533.207	23.35
533.552	23.37
533.897	23.42
534.242	23.43
534.587	23.46
534.932	23.5
535.277	23.52
535.622	23.55
535.967	23.6
536.312	23.63
536.657	23.68
537.001	23.71
537.346	23.77
537.691	23.79
538.035	23.8
538.38	23.8
538.724	23.83
539.069	23.85
539.413	23.88
539.758	23.9
540.102	23.94
540.446	23.93
540.791	23.96
541.135	23.98
541.479	24
541.823	24.01
542.167	24.01
542.512	24.03
542.856	24.02
543.2	24
543.543	24
543.887	24.01
544.231	24.03
544.575	24.04
544.919	24.09
545.262	24.13
545.606	24.18
545.95	24.21
546.293	24.23
546.637	24.25
546.98	24.29
547.324	24.28
547.667	24.32
548.011	24.3
548.354	24.32
548.697	24.32
549.04	24.34
549.384	24.36
549.727	24.37
550.07	24.42
550.413	24.45
550.756	24.5
551.099	24.49
551.442	24.49
551.785	24.52
552.128	24.49
552.47	24.48
552.813	24.47
553.156	24.45
553.499	24.45
553.841	24.46
554.184	24.44
554.526	24.45
554.869	24.43
555.211	24.48
555.554	24.49
555.896	24.48
556.238	24.48
556.581	24.49
556.923	24.49
557.265	24.5
557.607	24.5
557.949	24.47
558.291	24.49
558.633	24.49
558.975	24.5
559.317	24.49
559.659	24.51
560.001	24.46
560.343	24.47
560.685	24.48
561.026	24.47
561.368	24.46
561.71	24.43
562.051	24.43
562.393	24.41
562.734	24.37
563.076	24.38
563.417	24.36
563.759	24.33
564.1	24.33
564.441	24.31
564.782	24.29
565.124	24.28
565.465	24.28
565.806	24.26
566.147	24.23
566.488	24.19
566.829	24.18
567.17	24.21
567.511	24.19
567.851	24.18
568.192	24.16
568.533	24.17
568.874	24.17
569.214	24.16
569.555	24.13
569.895	24.14
570.236	24.14
570.576	24.14
570.917	24.14
571.257	24.14
571.598	24.11
571.938	24.1
572.278	24.09
572.618	24.08
572.959	24.06
573.299	24.04
573.639	24.05
573.979	24.06
574.319	24.03
574.659	24.03
574.999	24
575.339	23.98
575.678	23.94
576.018	23.91
576.358	23.87
576.698	23.86
577.037	23.8
577.377	23.8
577.716	23.75
578.056	23.71
578.395	23.68
578.735	23.67
579.074	23.65
579.413	23.6
579.753	23.59
580.092	23.63
580.431	23.61
580.77	23.61
581.109	23.57
581.448	23.56
581.787	23.54
582.126	23.52
582.465	23.54
582.804	23.54
583.143	23.52
583.482	23.5
583.82	23.49
584.159	23.52
584.498	23.49
584.836	23.49
585.175	23.49
585.514	23.45
585.852	23.51
586.19	23.49
586.529	23.51
586.867	23.49
587.205	23.45
587.544	23.45
587.882	23.42
588.22	23.41
588.558	23.4
588.896	23.39
589.234	23.36
589.572	23.31
589.91	23.31
590.248	23.31
590.586	23.31
590.924	23.34
591.262	23.31
591.599	23.33
591.937	23.34
592.275	23.28
592.612	23.27
592.95	23.2
593.287	23.22
593.625	23.2
593.962	23.2
594.299	23.2
594.637	23.19
594.974	23.2
595.311	23.23
595.648	23.24
595.985	23.24
596.322	23.23
596.659	23.26
596.996	23.24
597.333	23.23
597.67	23.22
598.007	23.18
598.344	23.17
598.681	23.14
599.017	23.1
599.354	23.16
599.691	23.15
600.027	23.14
600.364	23.1
600.7	23.11
601.037	23.09
601.373	23.12
601.71	23.11
602.046	23.09
602.382	23.1
602.718	23.08
603.054	23.03
603.391	23.03
603.727	23.01
604.063	23.01
604.399	22.98
604.735	22.97
605.071	22.97
605.406	22.97
605.742	22.98
606.078	23
606.414	23
606.749	23.02
607.085	23.03
607.421	23.04
607.756	23.03
608.092	23.01
608.427	22.94
608.762	22.9
609.098	22.88
609.433	22.82
609.768	22.78
610.104	22.8
610.439	22.79
610.774	22.78
611.109	22.73
611.444	22.75
611.779	22.76
612.114	22.77
612.449	22.71
612.784	22.68
613.118	22.64
613.453	22.59
613.788	22.51
614.123	22.42
614.457	22.36
614.792	22.35
615.126	22.33
615.461	22.3
615.795	22.29
616.13	22.25
616.464	22.22
616.798	22.23
617.132	22.21
617.467	22.24
617.801	22.21
618.135	22.26
618.469	22.22
618.803	22.18
619.137	22.14
619.471	22.17
619.805	22.16
620.139	22.12
620.472	22.12
620.806	22.13
621.14	22.13
621.473	22.13
621.807	22.09
622.141	22.05
622.474	22.09
622.808	22.11
623.141	22.12
623.474	22.18
623.808	22.18
624.141	22.19
624.474	22.16
624.807	22.21
625.141	22.18
625.474	22.18
625.807	22.24
626.14	22.25
626.473	22.23
626.806	22.25
627.138	22.24
627.471	22.22
627.804	22.2
628.137	22.21
628.469	22.2
628.802	22.2
629.135	22.24
629.467	22.2
629.8	22.13
630.132	22.12
630.465	22.09
630.797	22.08
631.129	22.08
631.461	22.07
631.794	22.04
632.126	22.02
632.458	22.03
632.79	21.97
633.122	21.93
633.454	21.93
633.786	21.93
634.118	21.95
634.45	21.94
634.781	21.98
635.113	21.95
635.445	21.9
635.777	21.88
636.108	21.87
636.44	21.87
636.771	21.89
637.103	21.9
637.434	21.87
637.765	21.87
638.097	21.84
638.428	21.81
638.759	21.8
639.09	21.78
639.422	21.76
639.753	21.76
640.084	21.74
640.415	21.72
640.746	21.71
641.077	21.63
641.407	21.59
641.738	21.55
642.069	21.58
642.4	21.6
642.73	21.63
643.061	21.61
643.392	21.65
643.722	21.7
