Data from pcis_p_h3_p3_Reflection_4.txt Node
Date: Wed Jul 12 17:53:28 ART 2017
User: rodoncho
Spectrometer: USB2E3644
Trigger mode: 4
Integration Time (sec): 6.000000E-2
Scans to average: 10
Electric dark correction enabled: true
Nonlinearity correction enabled: false
Boxcar width: 10
XAxis mode: Wavelengths
Number of Pixels in Spectrum: 2048
>>>>>Begin Spectral Data<<<<<
178.315	46.46
178.696	58.33
179.076	82.27
179.457	143.94
179.838	160
180.218	-1633.33
180.599	-303.7
180.979	94.12
181.36	38.1
181.74	37.04
182.121	59.46
182.501	140.15
182.881	132.53
183.262	135.14
183.642	16.22
184.022	72.29
184.402	62.6
184.783	77.84
185.163	86.92
185.543	71.9
185.923	81.54
186.303	80.1
186.683	83.73
187.063	88
187.443	89.7
187.823	87.16
188.203	88.49
188.583	93.33
188.963	90.55
189.343	93.43
189.723	97.06
190.102	100.78
190.482	109.56
190.862	107.82
191.242	112.06
191.621	110.29
192.001	109.62
192.38	108.46
192.76	107.04
193.14	104.18
193.519	106.66
193.898	106.67
194.278	109.16
194.657	109.33
195.037	110.2
195.416	111.93
195.795	114.04
196.175	114
196.554	113.27
196.933	114.34
197.312	112.78
197.692	112.19
198.071	110.96
198.45	108.4
198.829	107.81
199.208	106.83
199.587	108.58
199.966	110.2
200.345	110.45
200.724	110.58
201.103	112.09
201.482	111.76
201.86	110.86
202.239	108.17
202.618	107.36
202.997	107.29
203.375	106.88
203.754	105.84
204.133	104.91
204.511	104.03
204.89	104.35
205.269	106
205.647	106.48
206.026	106.41
206.404	107
206.782	107.27
207.161	106.85
207.539	106.79
207.918	105.45
208.296	104.86
208.674	104.5
209.052	104.05
209.431	103.76
209.809	103
210.187	102.67
210.565	103.55
210.943	104.7
211.321	104.86
211.699	105.46
212.077	107.25
212.455	106.95
212.833	105.83
213.211	104.06
213.589	103.93
213.967	103.61
214.345	103.18
214.722	103.6
215.1	104.1
215.478	104.51
215.855	104.14
216.233	104.79
216.611	105.62
216.988	105.68
217.366	107.05
217.743	107.51
218.121	108.66
218.498	107.77
218.876	106.46
219.253	107.03
219.631	108.42
220.008	109.25
220.385	110.2
220.762	109.99
221.14	110.31
221.517	110.79
221.894	111.83
222.271	111.69
222.648	110.8
223.025	110.74
223.402	110.96
223.78	111.95
224.157	113.36
224.533	113.31
224.91	113.8
225.287	113.7
225.664	115.41
226.041	116.8
226.418	118.21
226.795	118.09
227.171	117.35
227.548	116.17
227.925	116.27
228.301	116.75
228.678	117.81
229.055	119.45
229.431	119.9
229.808	119.73
230.184	120.54
230.561	121.55
230.937	121.02
231.313	121.87
231.69	122.69
232.066	120.95
232.442	122.24
232.819	121.79
233.195	121.48
233.571	121.13
233.947	120.52
234.323	120.25
234.699	121.45
235.075	121.7
235.451	120.01
235.827	118.76
236.203	118.82
236.579	119.51
236.955	120
237.331	122.34
237.707	124.76
238.083	127.78
238.459	131.1
238.834	137.43
239.21	141.65
239.586	145.57
239.961	151.66
240.337	155.68
240.713	161.48
241.088	164.2
241.464	168.93
241.839	176.51
242.215	186.11
242.59	200.37
242.965	236.38
243.341	319.33
243.716	476.51
244.091	836.22
244.467	1818.29
244.842	24200
245.217	-2745.13
245.592	-1876.65
245.967	-1671.66
246.343	-1773.71
246.718	-2700.87
247.093	-3313.98
247.468	-2574.79
247.843	-2053.69
248.218	-1440.76
248.593	-880.69
248.967	-624.03
249.342	-567.72
249.717	-558.38
250.092	-581.89
250.467	-642.22
250.841	-889.74
251.216	-3795.06
251.591	1767.23
251.965	808.14
252.34	579.67
252.714	493.7
253.089	419.05
253.463	406.97
253.838	413.15
254.212	439.52
254.587	501.98
254.961	625.33
255.335	1008.56
255.71	-29763.64
256.084	-671.22
256.458	-336.39
256.832	-222.37
257.206	-182.65
257.581	-163.66
257.955	-151.42
258.329	-142.95
258.703	-134.29
259.077	-124.23
259.451	-117.63
259.825	-111.14
260.199	-105.22
260.572	-101.21
260.946	-95.72
261.32	-93.61
261.694	-91.22
262.068	-90.07
262.441	-89.19
262.815	-88.35
263.189	-89.46
263.562	-94.7
263.936	-107.81
264.309	-128.77
264.683	-154.64
265.056	-172.9
265.43	-185.28
265.803	-186.73
266.176	-180.71
266.55	-180.65
266.923	-180.65
267.296	-173.12
267.67	-162.4
268.043	-152.04
268.416	-138.67
268.789	-125.54
269.162	-111.04
269.535	-103.37
269.908	-97.79
270.281	-93.86
270.654	-93.53
271.027	-95.6
271.4	-97.21
271.773	-98
272.146	-97.88
272.519	-96.03
272.891	-91.95
273.264	-89.27
273.637	-86.96
274.01	-88.37
274.382	-87.64
274.755	-85.29
275.127	-84.46
275.5	-84.86
275.872	-84.36
276.245	-85.05
276.617	-87.61
276.99	-92.03
277.362	-93.69
277.734	-93.72
278.107	-92.2
278.479	-87.98
278.851	-83.92
279.223	-79.77
279.596	-76.98
279.968	-75.43
280.34	-74.9
280.712	-72.8
281.084	-68.66
281.456	-63.26
281.828	-58.15
282.2	-53.72
282.572	-49.82
282.944	-46.99
283.315	-45.64
283.687	-45.14
284.059	-44.52
284.431	-43.33
284.802	-42.97
285.174	-41.87
285.546	-40.88
285.917	-40.7
286.289	-39.63
286.66	-38.29
287.032	-38
287.403	-37.29
287.775	-36.93
288.146	-36.46
288.518	-36.41
288.889	-37.18
289.26	-38.66
289.632	-39.67
290.003	-40.69
290.374	-42.49
290.745	-43.82
291.116	-43.34
291.487	-42.24
291.858	-41.62
292.229	-41.21
292.6	-39.37
292.971	-38.38
293.342	-36.42
293.713	-34.79
294.084	-34.42
294.455	-33.93
294.826	-33.31
295.196	-33.52
295.567	-33.16
295.938	-32.74
296.308	-32.96
296.679	-31.85
297.05	-30.82
297.42	-30.02
297.791	-29.5
298.161	-29.07
298.532	-28.25
298.902	-27.96
299.272	-27.38
299.643	-26.56
300.013	-26.16
300.383	-26.36
300.754	-26.21
301.124	-26.75
301.494	-26.8
301.864	-26.36
302.234	-26.58
302.604	-26.86
302.974	-26.34
303.344	-26.08
303.714	-26.17
304.084	-25.31
304.454	-25.32
304.824	-24.71
305.194	-24.12
305.563	-23.67
305.933	-22.32
306.303	-21.19
306.673	-20.34
307.042	-19.52
307.412	-18.81
307.781	-17.87
308.151	-17.06
308.521	-16.57
308.89	-16.33
309.259	-16.1
309.629	-15.88
309.998	-15.35
310.368	-15.16
310.737	-15.05
311.106	-14.82
311.475	-14.32
311.845	-14.33
312.214	-13.84
312.583	-13.44
312.952	-13.02
313.321	-12.37
313.69	-12.4
314.059	-12.87
314.428	-13.12
314.797	-13.47
315.166	-14.19
315.535	-14.87
315.904	-15.16
316.272	-15.51
316.641	-15.41
317.01	-15.4
317.379	-14.98
317.747	-15
318.116	-14.53
318.484	-14.33
318.853	-14
319.221	-13.85
319.59	-13.23
319.958	-13.12
320.327	-13.1
320.695	-12.89
321.063	-12.95
321.432	-12.46
321.8	-11.93
322.168	-11.06
322.536	-10.5
322.905	-9.39
323.273	-8.61
323.641	-8.19
324.009	-7.73
324.377	-7.19
324.745	-7.01
325.113	-7.07
325.481	-6.61
325.849	-6.04
326.216	-5.47
326.584	-5.12
326.952	-4.78
327.32	-4.56
327.687	-4.22
328.055	-4.14
328.423	-4.12
328.79	-3.96
329.158	-4.08
329.525	-3.62
329.893	-3.46
330.26	-3.22
330.628	-3.28
330.995	-2.99
331.362	-2.65
331.73	-2.22
332.097	-2.02
332.464	-1.6
332.831	-1.19
333.199	-0.9
333.566	-0.85
333.933	-0.75
334.3	-0.53
334.667	-0.21
335.034	0.05
335.401	0.14
335.768	0.29
336.135	0.71
336.502	0.97
336.868	1.4
337.235	1.54
337.602	1.74
337.969	2.01
338.335	2.38
338.702	2.58
339.069	2.73
339.435	2.85
339.802	3.01
340.168	3.25
340.535	3.44
340.901	3.49
341.267	3.71
341.634	3.89
342	4.17
342.366	4.41
342.733	4.62
343.099	4.95
343.465	5.19
343.831	5.31
344.197	5.53
344.563	5.53
344.929	5.58
345.295	5.76
345.661	5.9
346.027	6.02
346.393	6.05
346.759	6.1
347.125	6.11
347.491	6.12
347.856	6.12
348.222	6.12
348.588	6.31
348.953	6.26
349.319	6.29
349.684	6.19
350.05	6.18
350.415	6.27
350.781	6.4
351.146	6.51
351.512	6.6
351.877	6.66
352.242	6.79
352.608	6.87
352.973	6.85
353.338	6.84
353.703	6.84
354.068	7.07
354.433	7.22
354.798	7.42
355.164	7.58
355.528	7.65
355.893	7.75
356.258	7.77
356.623	7.87
356.988	8.05
357.353	8.32
357.718	8.48
358.082	8.62
358.447	8.65
358.812	8.72
359.176	8.79
359.541	8.81
359.905	8.97
360.27	9.1
360.634	9.26
360.999	9.36
361.363	9.5
361.728	9.49
362.092	9.57
362.456	9.6
362.821	9.66
363.185	9.76
363.549	9.89
363.913	9.99
364.277	10.09
364.641	10.14
365.005	10.16
365.369	10.21
365.733	10.23
366.097	10.33
366.461	10.4
366.825	10.43
367.189	10.59
367.553	10.67
367.916	10.79
368.28	10.82
368.644	11.04
369.007	11.15
369.371	11.26
369.734	11.34
370.098	11.5
370.461	11.61
370.825	11.72
371.188	11.82
371.552	11.94
371.915	12.06
372.278	12.19
372.642	12.33
373.005	12.45
373.368	12.5
373.731	12.54
374.094	12.67
374.457	12.73
374.82	12.73
375.183	12.75
375.546	12.78
375.909	12.91
376.272	12.83
376.635	12.78
376.998	12.77
377.361	12.78
377.723	12.78
378.086	12.81
378.449	12.82
378.811	12.85
379.174	12.83
379.537	12.85
379.899	12.88
380.262	12.92
380.624	12.88
380.987	12.89
381.349	12.92
381.711	12.95
382.074	13.05
382.436	13.16
382.798	13.18
383.16	13.14
383.522	13.15
383.884	13.25
384.247	13.36
384.609	13.44
384.971	13.52
385.333	13.58
385.695	13.6
386.056	13.61
386.418	13.57
386.78	13.6
387.142	13.65
387.504	13.66
387.865	13.59
388.227	13.61
388.589	13.62
388.95	13.62
389.312	13.59
389.673	13.54
390.035	13.52
390.396	13.52
390.758	13.52
391.119	13.47
391.48	13.42
391.842	13.36
392.203	13.27
392.564	13.2
392.925	13.15
393.286	13.13
393.648	13.13
394.009	13.1
394.37	13.06
394.731	12.95
395.092	12.85
395.452	12.86
395.813	12.87
396.174	12.85
396.535	12.82
396.896	12.77
397.257	12.77
397.617	12.74
397.978	12.71
398.338	12.74
398.699	12.76
399.06	12.71
399.42	12.66
399.781	12.63
400.141	12.57
400.501	12.53
400.862	12.48
401.222	12.47
401.582	12.43
401.943	12.43
402.303	12.44
402.663	12.46
403.023	12.4
403.383	12.34
403.743	12.31
404.103	12.31
404.463	12.34
404.823	12.32
405.183	12.25
405.543	12.26
405.903	12.23
406.262	12.18
406.622	12.21
406.982	12.21
407.342	12.26
407.701	12.29
408.061	12.29
408.42	12.28
408.78	12.24
409.139	12.27
409.499	12.26
409.858	12.28
410.217	12.27
410.577	12.25
410.936	12.26
411.295	12.27
411.655	12.23
412.014	12.18
412.373	12.13
412.732	12.09
413.091	12.04
413.45	11.98
413.809	11.94
414.168	11.84
414.527	11.75
414.886	11.6
415.245	11.52
415.603	11.42
415.962	11.32
416.321	11.24
416.679	11.12
417.038	11.01
417.397	10.91
417.755	10.82
418.114	10.73
418.472	10.65
418.831	10.57
419.189	10.51
419.547	10.43
419.906	10.37
420.264	10.3
420.622	10.22
420.981	10.15
421.339	10.08
421.697	10.02
422.055	9.99
422.413	9.98
422.771	9.94
423.129	9.91
423.487	9.9
423.845	9.88
424.203	9.88
424.56	9.88
424.918	9.87
425.276	9.88
425.634	9.91
425.991	9.91
426.349	9.91
426.707	9.92
427.064	9.93
427.422	9.94
427.779	9.98
428.137	10.03
428.494	10.06
428.851	10.12
429.209	10.17
429.566	10.17
429.923	10.17
430.28	10.19
430.637	10.22
430.995	10.21
431.352	10.23
431.709	10.24
432.066	10.26
432.423	10.28
432.78	10.27
433.137	10.27
433.493	10.28
433.85	10.31
434.207	10.29
434.564	10.3
434.92	10.33
435.277	10.31
435.634	10.3
435.99	10.32
436.347	10.32
436.703	10.33
437.06	10.34
437.416	10.36
437.773	10.37
438.129	10.35
438.485	10.35
438.841	10.35
439.198	10.35
439.554	10.35
439.91	10.33
440.266	10.33
440.622	10.32
440.978	10.3
441.334	10.26
441.69	10.24
442.046	10.2
442.402	10.12
442.758	10.07
443.113	10.01
443.469	9.94
443.825	9.88
444.181	9.84
444.536	9.81
444.892	9.77
445.247	9.71
445.603	9.69
445.958	9.66
446.314	9.63
446.669	9.59
447.025	9.56
447.38	9.52
447.735	9.47
448.09	9.45
448.446	9.41
448.801	9.38
449.156	9.37
449.511	9.34
449.866	9.35
450.221	9.34
450.576	9.35
450.931	9.37
451.286	9.37
451.641	9.38
451.995	9.36
452.35	9.36
452.705	9.39
453.06	9.41
453.414	9.44
453.769	9.44
454.123	9.47
454.478	9.47
454.832	9.49
455.187	9.5
455.541	9.5
455.896	9.51
456.25	9.52
456.604	9.53
456.958	9.55
457.313	9.54
457.667	9.57
458.021	9.6
458.375	9.63
458.729	9.67
459.083	9.71
459.437	9.76
459.791	9.81
460.145	9.86
460.499	9.91
460.852	9.95
461.206	10.02
461.56	10.07
461.914	10.13
462.267	10.2
462.621	10.29
462.974	10.38
463.328	10.51
463.681	10.64
464.035	10.78
464.388	10.9
464.742	11.05
465.095	11.17
465.448	11.28
465.801	11.39
466.155	11.49
466.508	11.59
466.861	11.65
467.214	11.75
467.567	11.81
467.92	11.87
468.273	11.92
468.626	11.99
468.979	12.04
469.332	12.08
469.684	12.12
470.037	12.16
470.39	12.19
470.743	12.22
471.095	12.25
471.448	12.28
471.8	12.3
472.153	12.32
472.505	12.32
472.858	12.32
473.21	12.29
473.562	12.26
473.915	12.22
474.267	12.18
474.619	12.11
474.971	12.05
475.324	11.97
475.676	11.91
476.028	11.82
476.38	11.76
476.732	11.7
477.084	11.61
477.436	11.52
477.787	11.43
478.139	11.34
478.491	11.24
478.843	11.12
479.195	10.99
479.546	10.81
479.898	10.63
480.249	10.44
480.601	10.29
480.952	10.16
481.304	10.06
481.655	10
482.007	9.94
482.358	9.9
482.709	9.88
483.061	9.85
483.412	9.82
483.763	9.79
484.114	9.77
484.465	9.75
484.816	9.74
485.167	9.74
485.518	9.74
485.869	9.74
486.22	9.76
486.571	9.78
486.922	9.82
487.272	9.86
487.623	9.93
487.974	10.02
488.324	10.15
488.675	10.26
489.025	10.35
489.376	10.45
489.726	10.55
490.077	10.63
490.427	10.73
490.778	10.84
491.128	10.98
491.478	11.15
491.828	11.33
492.179	11.52
492.529	11.7
492.879	11.89
493.229	12.09
493.579	12.29
493.929	12.47
494.279	12.65
494.629	12.86
494.979	13.12
495.328	13.41
495.678	13.72
496.028	14.04
496.378	14.35
496.727	14.64
497.077	14.92
497.426	15.2
497.776	15.44
498.125	15.69
498.475	15.93
498.824	16.17
499.174	16.38
499.523	16.62
499.872	16.88
500.221	17.12
500.571	17.36
500.92	17.62
501.269	17.87
501.618	18.13
501.967	18.37
502.316	18.6
502.665	18.84
503.014	19.06
503.363	19.29
503.711	19.49
504.06	19.68
504.409	19.86
504.758	20.04
505.106	20.21
505.455	20.38
505.803	20.51
506.152	20.65
506.5	20.79
506.849	20.91
507.197	21.03
507.546	21.17
507.894	21.3
508.242	21.41
508.59	21.52
508.939	21.61
509.287	21.73
509.635	21.83
509.983	21.92
510.331	22.01
510.679	22.09
511.027	22.18
511.375	22.25
511.723	22.31
512.07	22.4
512.418	22.48
512.766	22.57
513.114	22.67
513.461	22.75
513.809	22.83
514.156	22.88
514.504	22.95
514.851	23
515.199	23.04
515.546	23.1
515.893	23.16
516.241	23.22
516.588	23.24
516.935	23.26
517.282	23.31
517.63	23.31
517.977	23.34
518.324	23.38
518.671	23.42
519.018	23.48
519.365	23.5
519.711	23.54
520.058	23.54
520.405	23.56
520.752	23.57
521.099	23.6
521.445	23.64
521.792	23.64
522.138	23.66
522.485	23.69
522.832	23.73
523.178	23.75
523.524	23.79
523.871	23.82
524.217	23.87
524.563	23.91
524.91	23.95
525.256	23.97
525.602	24
525.948	24.01
526.294	24.02
526.64	24.03
526.986	24.04
527.332	24.06
527.678	24.06
528.024	24.08
528.37	24.1
528.716	24.11
529.061	24.14
529.407	24.17
529.753	24.21
530.098	24.23
530.444	24.24
530.789	24.25
531.135	24.26
531.48	24.28
531.826	24.3
532.171	24.34
532.516	24.37
532.862	24.39
533.207	24.44
533.552	24.47
533.897	24.49
534.242	24.5
534.587	24.52
534.932	24.55
535.277	24.55
535.622	24.57
535.967	24.59
536.312	24.63
536.657	24.64
537.001	24.65
537.346	24.67
537.691	24.67
538.035	24.66
538.38	24.65
538.724	24.64
539.069	24.61
539.413	24.61
539.758	24.61
540.102	24.62
540.446	24.61
540.791	24.61
541.135	24.61
541.479	24.63
541.823	24.63
542.167	24.62
542.512	24.61
542.856	24.58
543.2	24.57
543.543	24.55
543.887	24.54
544.231	24.52
544.575	24.51
544.919	24.5
545.262	24.51
545.606	24.53
545.95	24.55
546.293	24.55
546.637	24.53
546.98	24.5
547.324	24.44
547.667	24.43
548.011	24.39
548.354	24.36
548.697	24.32
549.04	24.32
549.384	24.3
549.727	24.29
550.07	24.3
550.413	24.29
550.756	24.28
551.099	24.27
551.442	24.28
551.785	24.27
552.128	24.26
552.47	24.25
552.813	24.21
553.156	24.18
553.499	24.16
553.841	24.14
554.184	24.16
554.526	24.17
554.869	24.14
555.211	24.14
555.554	24.15
555.896	24.12
556.238	24.1
556.581	24.06
556.923	24.03
557.265	23.99
557.607	23.96
557.949	23.9
558.291	23.87
558.633	23.83
558.975	23.8
559.317	23.79
559.659	23.78
560.001	23.75
560.343	23.67
560.685	23.66
561.026	23.63
561.368	23.59
561.71	23.54
562.051	23.51
562.393	23.47
562.734	23.41
563.076	23.37
563.417	23.3
563.759	23.29
564.1	23.24
564.441	23.2
564.782	23.13
565.124	23.12
565.465	23.07
565.806	23.02
566.147	22.96
566.488	22.9
566.829	22.83
567.17	22.75
567.511	22.76
567.851	22.69
568.192	22.63
568.533	22.56
568.874	22.51
569.214	22.49
569.555	22.43
569.895	22.36
570.236	22.3
570.576	22.23
570.917	22.18
571.257	22.11
571.598	22.05
571.938	22.03
572.278	22
572.618	21.96
572.959	21.91
573.299	21.85
573.639	21.8
573.979	21.75
574.319	21.71
574.659	21.65
574.999	21.58
575.339	21.55
575.678	21.5
576.018	21.44
576.358	21.35
576.698	21.28
577.037	21.23
577.377	21.18
577.716	21.12
578.056	21.05
578.395	20.98
578.735	20.94
579.074	20.84
579.413	20.69
579.753	20.61
580.092	20.53
580.431	20.48
580.77	20.41
581.109	20.38
581.448	20.33
581.787	20.27
582.126	20.21
582.465	20.12
582.804	20.07
583.143	20
583.482	19.92
583.82	19.84
584.159	19.77
584.498	19.68
584.836	19.64
585.175	19.57
585.514	19.52
585.852	19.47
586.19	19.44
586.529	19.42
586.867	19.35
587.205	19.35
587.544	19.29
587.882	19.23
588.22	19.16
588.558	19.11
588.896	19.02
589.234	18.99
589.572	18.96
589.91	18.88
590.248	18.84
590.586	18.81
590.924	18.75
591.262	18.72
591.599	18.71
591.937	18.67
592.275	18.6
592.612	18.54
592.95	18.5
593.287	18.46
593.625	18.43
593.962	18.4
594.299	18.32
594.637	18.3
594.974	18.27
595.311	18.2
595.648	18.15
595.985	18.12
596.322	18.08
596.659	18.03
596.996	18.01
597.333	17.98
597.67	17.93
598.007	17.89
598.344	17.81
598.681	17.73
599.017	17.64
599.354	17.59
599.691	17.56
600.027	17.51
600.364	17.45
600.7	17.38
601.037	17.32
601.373	17.3
601.71	17.24
602.046	17.2
602.382	17.2
602.718	17.17
603.054	17.13
603.391	17.07
603.727	17.03
604.063	16.99
604.399	16.93
604.735	16.89
605.071	16.89
605.406	16.88
605.742	16.88
606.078	16.87
606.414	16.88
606.749	16.84
607.085	16.79
607.421	16.73
607.756	16.69
608.092	16.62
608.427	16.52
608.762	16.45
609.098	16.34
609.433	16.24
609.768	16.16
610.104	16.13
610.439	16.08
610.774	16.01
611.109	15.94
611.444	15.89
611.779	15.86
612.114	15.76
612.449	15.67
612.784	15.57
613.118	15.47
613.453	15.33
613.788	15.22
614.123	15.12
614.457	15.07
614.792	14.97
615.126	14.88
615.461	14.8
615.795	14.7
616.13	14.68
616.464	14.59
616.798	14.56
617.132	14.51
617.467	14.46
617.801	14.43
618.135	14.4
618.469	14.34
618.803	14.26
619.137	14.23
619.471	14.22
619.805	14.17
620.139	14.12
620.472	14.1
620.806	14.06
621.14	14
621.473	13.94
621.807	13.88
622.141	13.84
622.474	13.79
622.808	13.79
623.141	13.74
623.474	13.74
623.808	13.72
624.141	13.72
624.474	13.73
624.807	13.73
625.141	13.72
625.474	13.7
625.807	13.68
626.14	13.69
626.473	13.64
626.806	13.63
627.138	13.67
627.471	13.63
627.804	13.61
628.137	13.61
628.469	13.57
628.802	13.54
629.135	13.51
629.467	13.51
629.8	13.47
630.132	13.47
630.465	13.46
630.797	13.39
631.129	13.32
631.461	13.25
631.794	13.19
632.126	13.13
632.458	13.11
632.79	13.06
633.122	13.03
633.454	13.02
633.786	12.95
634.118	12.88
634.45	12.89
634.781	12.85
635.113	12.84
635.445	12.82
635.777	12.79
636.108	12.76
636.44	12.74
636.771	12.68
637.103	12.6
637.434	12.55
637.765	12.53
638.097	12.49
638.428	12.41
638.759	12.37
639.09	12.31
639.422	12.25
639.753	12.23
640.084	12.17
640.415	12.15
640.746	12.13
641.077	12.06
641.407	11.99
641.738	11.94
642.069	11.88
642.4	11.83
642.73	11.8
643.061	11.77
643.392	11.73
643.722	11.76
644.053	11.75
644.383	11.74
644.713	11.72
645.044	11.66
645.374	11.64
645.704	11.58
646.034	11.58
