Data from pcis_c_m2_p6_Reflection_5.txt Node
Date: Wed Jul 12 17:36:54 ART 2017
User: rodoncho
Spectrometer: USB2E3644
Trigger mode: 4
Integration Time (sec): 6.000000E-2
Scans to average: 10
Electric dark correction enabled: true
Nonlinearity correction enabled: false
Boxcar width: 10
XAxis mode: Wavelengths
Number of Pixels in Spectrum: 2048
>>>>>Begin Spectral Data<<<<<
178.315	3700
178.696	169.23
179.076	550
179.457	319.51
179.838	81.25
180.218	345.45
180.599	178.26
180.979	2400
181.36	19
181.74	-13.45
182.121	-350
182.501	110.54
182.881	147.52
183.262	288.57
183.642	-124.1
184.022	-4.43
184.402	32.22
184.783	52.63
185.163	67.36
185.543	75.6
185.923	73.53
186.303	67.18
186.683	74.69
187.063	77.85
187.443	88.07
187.823	83.56
188.203	83.03
188.583	81.63
188.963	82.94
189.343	80.64
189.723	79.4
190.102	81.75
190.482	86.56
190.862	92.74
191.242	93.83
191.621	96.78
192.001	95.94
192.38	92.62
192.76	90.45
193.14	89.91
193.519	89.44
193.898	91.88
194.278	93.39
194.657	91.83
195.037	91.18
195.416	91.59
195.795	93.1
196.175	92.43
196.554	92.65
196.933	93.66
197.312	94.79
197.692	96.45
198.071	99.46
198.45	98.64
198.829	96.36
199.208	95.64
199.587	94.77
199.966	95.41
200.345	96.52
200.724	96.47
201.103	97.83
201.482	99.54
201.86	99.54
202.239	99.64
202.618	100.45
202.997	101.24
203.375	100.61
203.754	98.46
204.133	97.12
204.511	97.04
204.89	96.43
205.269	96.75
205.647	96.08
206.026	95.14
206.404	95.96
206.782	97.01
207.161	98.61
207.539	100.08
207.918	99.68
208.296	99.92
208.674	100.94
209.052	100.7
209.431	100.08
209.809	99.54
210.187	99.62
210.565	98.33
210.943	98.23
211.321	98.08
211.699	99.69
212.077	101.63
212.455	102.06
212.833	101.8
213.211	101.25
213.589	101.47
213.967	101.32
214.345	100.07
214.722	100.22
215.1	100.43
215.478	100.57
215.855	101.6
216.233	101.23
216.611	101.44
216.988	101.21
217.366	100.78
217.743	101.14
218.121	101.06
218.498	103.68
218.876	104.64
219.253	105.4
219.631	105.66
220.008	105.47
220.385	105.8
220.762	105.94
221.14	106.04
221.517	105.06
221.894	104.99
222.271	105.88
222.648	106.14
223.025	105.19
223.402	104.31
223.78	103.55
224.157	103.58
224.533	102.7
224.91	102.54
225.287	103.59
225.664	104.47
226.041	104.7
226.418	102.99
226.795	101.82
227.171	101.67
227.548	101.35
227.925	102.53
228.301	103.34
228.678	104.48
229.055	104.32
229.431	105.87
229.808	107.19
230.184	107.63
230.561	107.63
230.937	108.03
231.313	108.4
231.69	108.37
232.066	107.67
232.442	107.65
232.819	107.46
233.195	107.3
233.571	107.51
233.947	107.4
234.323	107.43
234.699	108.32
235.075	108.77
235.451	109.03
235.827	109.36
236.203	109.04
236.579	108.72
236.955	109.58
237.331	110.71
237.707	112.31
238.083	114.23
238.459	118.4
238.834	125.06
239.21	131.28
239.586	135.99
239.961	143.26
240.337	147.1
240.713	150.14
241.088	151.81
241.464	153.43
241.839	159.11
242.215	167.02
242.59	177.04
242.965	199.8
243.341	249.85
243.716	323.3
244.091	455.02
244.467	673.13
244.842	1147.9
245.217	2498.45
245.592	7119.12
245.967	96940
246.343	11029.55
246.718	3518.25
247.093	2741.04
247.468	2850.3
247.843	2924.39
248.218	-68642.86
248.593	-2624.46
248.967	-1239.18
249.342	-917.02
249.717	-907.18
250.092	-883.73
250.467	-993.35
250.841	-1859.37
251.216	3031.65
251.591	921.56
251.965	592.23
252.34	466.73
252.714	393.97
253.089	347.98
253.463	333.16
253.838	340.81
254.212	359.12
254.587	395.54
254.961	453.54
255.335	630.1
255.71	1918.68
256.084	-1251.92
256.458	-444.95
256.832	-275.39
257.206	-220.1
257.581	-194.09
257.955	-184.02
258.329	-175.01
258.703	-161.85
259.077	-151.97
259.451	-144.34
259.825	-137.95
260.199	-131.63
260.572	-125.63
260.946	-119.99
261.32	-116.82
261.694	-112.8
262.068	-109.29
262.441	-107.95
262.815	-106.68
263.189	-106.14
263.562	-113.01
263.936	-130.59
264.309	-156.62
264.683	-188.54
265.056	-212.8
265.43	-216.64
265.803	-208.23
266.176	-197.15
266.55	-198.69
266.923	-192.79
267.296	-182.02
267.67	-172.38
268.043	-159.37
268.416	-145.98
268.789	-129.66
269.162	-114.32
269.535	-105.23
269.908	-100.68
270.281	-97.71
270.654	-97.25
271.027	-101.69
271.4	-105.04
271.773	-106.06
272.146	-104.57
272.519	-101.3
272.891	-98.31
273.264	-100.22
273.637	-100.82
274.01	-102.84
274.382	-102.17
274.755	-100.62
275.127	-99.96
275.5	-99.62
275.872	-99.62
276.245	-98.54
276.617	-101.55
276.99	-107.33
277.362	-110.98
277.734	-111.72
278.107	-109.77
278.479	-105.29
278.851	-99.26
279.223	-93.43
279.596	-90.13
279.968	-89.08
280.34	-88.91
280.712	-86.33
281.084	-79.59
281.456	-72.76
281.828	-66.81
282.2	-61.58
282.572	-57.88
282.944	-55.09
283.315	-53.93
283.687	-53.01
284.059	-53.1
284.431	-52.46
284.802	-51.65
285.174	-50.13
285.546	-48.49
285.917	-48.17
286.289	-46.99
286.66	-45.42
287.032	-44.85
287.403	-43.91
287.775	-43.21
288.146	-42.73
288.518	-42.33
288.889	-42.43
289.26	-43.74
289.632	-44.9
290.003	-46.25
290.374	-47.28
290.745	-47.7
291.116	-46.72
291.487	-45.67
291.858	-44.33
292.229	-42.89
292.6	-40.89
292.971	-39.52
293.342	-38.39
293.713	-35.8
294.084	-34.01
294.455	-33.57
294.826	-32.69
295.196	-32.63
295.567	-32.27
295.938	-31.58
296.308	-31.6
296.679	-30.7
297.05	-29.71
297.42	-28.82
297.791	-27.89
298.161	-27.09
298.532	-26.74
298.902	-26.52
299.272	-25.95
299.643	-25.19
300.013	-24.56
300.383	-23.93
300.754	-23.44
301.124	-23.31
301.494	-23.73
301.864	-24.52
302.234	-24.91
302.604	-25.25
302.974	-24.82
303.344	-24.36
303.714	-24.37
304.084	-23.53
304.454	-23.4
304.824	-22.45
305.194	-21.63
305.563	-20.82
305.933	-19.92
306.303	-18.77
306.673	-18.07
307.042	-17.41
307.412	-16.91
307.781	-16.39
308.151	-16.14
308.521	-15.92
308.89	-15.72
309.259	-15.18
309.629	-14.51
309.998	-14.01
310.368	-13.87
310.737	-13.79
311.106	-13.74
311.475	-13.18
311.845	-12.89
312.214	-12.55
312.583	-12.54
312.952	-12.37
313.321	-12.47
313.69	-12.54
314.059	-12.93
314.428	-12.99
314.797	-13.57
315.166	-14.24
315.535	-14.62
315.904	-14.76
316.272	-14.93
316.641	-14.61
317.01	-14.59
317.379	-14.5
317.747	-14.08
318.116	-13.61
318.484	-13.4
318.853	-12.93
319.221	-12.77
319.59	-12.69
319.958	-12.5
320.327	-12.13
320.695	-11.84
321.063	-11.36
321.432	-10.93
321.8	-10.61
322.168	-9.9
322.536	-9.06
322.905	-8.02
323.273	-7.54
323.641	-7.22
324.009	-7.22
324.377	-7.02
324.745	-6.71
325.113	-6.46
325.481	-6.32
325.849	-5.78
326.216	-5.1
326.584	-4.65
326.952	-4.36
327.32	-3.98
327.687	-3.63
328.055	-3.42
328.423	-3.34
328.79	-3.3
329.158	-3.27
329.525	-2.8
329.893	-2.51
330.26	-2.08
330.628	-2.13
330.995	-1.88
331.362	-1.64
331.73	-1.11
332.097	-0.6
332.464	-0.47
332.831	-0.16
333.199	0.23
333.566	0.35
333.933	0.3
334.3	0.28
334.667	0.35
335.034	0.5
335.401	0.65
335.768	0.67
336.135	0.89
336.502	1.22
336.868	1.54
337.235	1.74
337.602	1.99
337.969	2.05
338.335	2.45
338.702	2.81
339.069	3.18
339.435	3.33
339.802	3.33
340.168	3.61
340.535	3.74
340.901	3.79
341.267	3.92
341.634	4.29
342	4.58
342.366	4.86
342.733	5.05
343.099	5.33
343.465	5.71
343.831	6.01
344.197	6.11
344.563	6.25
344.929	6.47
345.295	6.49
345.661	6.68
346.027	6.8
346.393	6.83
346.759	6.85
347.125	6.94
347.491	7.07
347.856	7.18
348.222	7.32
348.588	7.52
348.953	7.65
349.319	7.83
349.684	7.98
350.05	8.2
350.415	8.38
350.781	8.42
351.146	8.55
351.512	8.65
351.877	8.83
352.242	8.92
352.608	8.88
352.973	9.02
353.338	9
353.703	9.02
354.068	9.21
354.433	9.33
354.798	9.58
355.164	9.76
355.528	9.79
355.893	9.88
356.258	9.92
356.623	10.06
356.988	10.02
357.353	10.17
357.718	10.16
358.082	10.21
358.447	10.21
358.812	10.2
359.176	10.26
359.541	10.24
359.905	10.28
360.27	10.39
360.634	10.46
360.999	10.61
361.363	10.75
361.728	10.75
362.092	10.8
362.456	10.78
362.821	10.81
363.185	10.91
363.549	11
363.913	11.1
364.277	11.18
364.641	11.26
365.005	11.3
365.369	11.41
365.733	11.49
366.097	11.6
366.461	11.63
366.825	11.69
367.189	11.84
367.553	12
367.916	12.11
368.28	12.18
368.644	12.33
369.007	12.4
369.371	12.46
369.734	12.53
370.098	12.61
370.461	12.64
370.825	12.7
371.188	12.78
371.552	12.92
371.915	12.97
372.278	13.1
372.642	13.21
373.005	13.22
373.368	13.28
373.731	13.36
374.094	13.48
374.457	13.52
374.82	13.61
375.183	13.63
375.546	13.64
375.909	13.68
376.272	13.71
376.635	13.71
376.998	13.75
377.361	13.8
377.723	13.84
378.086	13.88
378.449	14.01
378.811	14.1
379.174	14.09
379.537	14.11
379.899	14.09
380.262	14.1
380.624	14.17
380.987	14.24
381.349	14.26
381.711	14.27
382.074	14.33
382.436	14.34
382.798	14.39
383.16	14.4
383.522	14.45
383.884	14.44
384.247	14.52
384.609	14.58
384.971	14.61
385.333	14.63
385.695	14.69
386.056	14.63
386.418	14.6
386.78	14.66
387.142	14.66
387.504	14.69
387.865	14.66
388.227	14.65
388.589	14.63
388.95	14.64
389.312	14.63
389.673	14.59
390.035	14.56
390.396	14.54
390.758	14.53
391.119	14.51
391.48	14.49
391.842	14.48
392.203	14.42
392.564	14.4
392.925	14.41
393.286	14.39
393.648	14.36
394.009	14.35
394.37	14.29
394.731	14.25
395.092	14.21
395.452	14.21
395.813	14.23
396.174	14.2
396.535	14.17
396.896	14.16
397.257	14.16
397.617	14.16
397.978	14.15
398.338	14.17
398.699	14.16
399.06	14.15
399.42	14.07
399.781	14.06
400.141	14.02
400.501	13.97
400.862	13.92
401.222	13.92
401.582	13.86
401.943	13.82
402.303	13.84
402.663	13.85
403.023	13.81
403.383	13.74
403.743	13.71
404.103	13.7
404.463	13.7
404.823	13.7
405.183	13.66
405.543	13.64
405.903	13.61
406.262	13.58
406.622	13.55
406.982	13.53
407.342	13.53
407.701	13.49
408.061	13.43
408.42	13.4
408.78	13.36
409.139	13.36
409.499	13.37
409.858	13.31
410.217	13.25
410.577	13.23
410.936	13.21
411.295	13.18
411.655	13.11
412.014	13.01
412.373	12.92
412.732	12.88
413.091	12.79
413.45	12.73
413.809	12.67
414.168	12.58
414.527	12.47
414.886	12.37
415.245	12.29
415.603	12.2
415.962	12.1
416.321	11.99
416.679	11.89
417.038	11.78
417.397	11.67
417.755	11.56
418.114	11.47
418.472	11.39
418.831	11.32
419.189	11.25
419.547	11.18
419.906	11.12
420.264	11.03
420.622	10.96
420.981	10.88
421.339	10.81
421.697	10.75
422.055	10.71
422.413	10.65
422.771	10.62
423.129	10.59
423.487	10.58
423.845	10.57
424.203	10.56
424.56	10.54
424.918	10.53
425.276	10.52
425.634	10.51
425.991	10.48
426.349	10.47
426.707	10.48
427.064	10.48
427.422	10.49
427.779	10.49
428.137	10.49
428.494	10.51
428.851	10.51
429.209	10.48
429.566	10.45
429.923	10.41
430.28	10.36
430.637	10.35
430.995	10.26
431.352	10.21
431.709	10.21
432.066	10.17
432.423	10.16
432.78	10.13
433.137	10.1
433.493	10.11
433.85	10.07
434.207	10.01
434.564	9.97
434.92	9.94
435.277	9.89
435.634	9.85
435.99	9.79
436.347	9.74
436.703	9.7
437.06	9.66
437.416	9.65
437.773	9.62
438.129	9.58
438.485	9.59
438.841	9.55
439.198	9.52
439.554	9.51
439.91	9.48
440.266	9.46
440.622	9.46
440.978	9.41
441.334	9.38
441.69	9.36
442.046	9.32
442.402	9.25
442.758	9.21
443.113	9.18
443.469	9.14
443.825	9.13
444.181	9.12
444.536	9.1
444.892	9.07
445.247	9.06
445.603	9.06
445.958	9.05
446.314	9.04
446.669	9.02
447.025	8.99
447.38	8.98
447.735	8.97
448.09	8.94
448.446	8.94
448.801	8.92
449.156	8.91
449.511	8.91
449.866	8.94
450.221	8.97
450.576	8.98
450.931	8.98
451.286	8.96
451.641	8.96
451.995	8.97
452.35	8.96
452.705	8.95
453.06	8.93
453.414	8.94
453.769	8.94
454.123	8.93
454.478	8.92
454.832	8.89
455.187	8.83
455.541	8.79
455.896	8.73
456.25	8.7
456.604	8.65
456.958	8.61
457.313	8.57
457.667	8.55
458.021	8.54
458.375	8.54
458.729	8.54
459.083	8.55
459.437	8.54
459.791	8.53
460.145	8.54
460.499	8.53
460.852	8.52
461.206	8.51
461.56	8.5
461.914	8.51
462.267	8.52
462.621	8.55
462.974	8.57
463.328	8.59
463.681	8.61
464.035	8.64
464.388	8.67
464.742	8.7
465.095	8.69
465.448	8.7
465.801	8.71
466.155	8.7
466.508	8.71
466.861	8.69
467.214	8.7
467.567	8.69
467.92	8.71
468.273	8.7
468.626	8.7
468.979	8.69
469.332	8.66
469.684	8.65
470.037	8.64
470.39	8.63
470.743	8.64
471.095	8.65
471.448	8.67
471.8	8.66
472.153	8.66
472.505	8.67
472.858	8.66
473.21	8.63
473.562	8.63
473.915	8.58
474.267	8.58
474.619	8.57
474.971	8.56
475.324	8.53
475.676	8.51
476.028	8.5
476.38	8.5
476.732	8.49
477.084	8.5
477.436	8.48
477.787	8.47
478.139	8.45
478.491	8.42
478.843	8.38
479.195	8.34
479.546	8.27
479.898	8.17
480.249	8.1
480.601	8.05
480.952	7.98
481.304	7.95
481.655	7.92
482.007	7.89
482.358	7.88
482.709	7.88
483.061	7.86
483.412	7.84
483.763	7.82
484.114	7.8
484.465	7.78
484.816	7.77
485.167	7.76
485.518	7.75
485.869	7.74
486.22	7.74
486.571	7.75
486.922	7.76
487.272	7.78
487.623	7.78
487.974	7.8
488.324	7.83
488.675	7.84
489.025	7.85
489.376	7.88
489.726	7.88
490.077	7.88
490.427	7.9
490.778	7.92
491.128	7.95
491.478	8
491.828	8.04
492.179	8.08
492.529	8.11
492.879	8.13
493.229	8.16
493.579	8.17
493.929	8.18
494.279	8.18
494.629	8.21
494.979	8.26
495.328	8.29
495.678	8.33
496.028	8.38
496.378	8.41
496.727	8.44
497.077	8.48
497.426	8.52
497.776	8.53
498.125	8.54
498.475	8.55
498.824	8.56
499.174	8.56
499.523	8.58
499.872	8.59
500.221	8.62
500.571	8.65
500.92	8.69
501.269	8.69
501.618	8.73
501.967	8.75
502.316	8.74
502.665	8.76
503.014	8.76
503.363	8.77
503.711	8.8
504.06	8.8
504.409	8.79
504.758	8.79
505.106	8.8
505.455	8.82
505.803	8.83
506.152	8.81
506.5	8.82
506.849	8.82
507.197	8.83
507.546	8.83
507.894	8.82
508.242	8.83
508.59	8.85
508.939	8.84
509.287	8.85
509.635	8.9
509.983	8.91
510.331	8.94
510.679	8.96
511.027	8.97
511.375	8.99
511.723	9.01
512.07	9.03
512.418	9.06
512.766	9.09
513.114	9.1
513.461	9.14
513.809	9.15
514.156	9.19
514.504	9.21
514.851	9.23
515.199	9.24
515.546	9.22
515.893	9.23
516.241	9.25
516.588	9.26
516.935	9.25
517.282	9.26
517.63	9.27
517.977	9.27
518.324	9.29
518.671	9.31
519.018	9.34
519.365	9.35
519.711	9.36
520.058	9.35
520.405	9.37
520.752	9.39
521.099	9.39
521.445	9.39
521.792	9.4
522.138	9.4
522.485	9.44
522.832	9.47
523.178	9.5
523.524	9.52
523.871	9.54
524.217	9.56
524.563	9.52
524.91	9.49
525.256	9.49
525.602	9.48
525.948	9.46
526.294	9.45
526.64	9.45
526.986	9.45
527.332	9.46
527.678	9.46
528.024	9.47
528.37	9.49
528.716	9.5
529.061	9.52
529.407	9.53
529.753	9.54
530.098	9.55
530.444	9.55
530.789	9.57
531.135	9.58
531.48	9.6
531.826	9.65
532.171	9.7
532.516	9.74
532.862	9.8
533.207	9.85
533.552	9.9
533.897	9.94
534.242	9.97
534.587	10.01
534.932	10.04
535.277	10.07
535.622	10.09
535.967	10.14
536.312	10.17
536.657	10.22
537.001	10.28
537.346	10.35
537.691	10.39
538.035	10.41
538.38	10.44
538.724	10.45
539.069	10.47
539.413	10.5
539.758	10.52
540.102	10.55
540.446	10.56
540.791	10.59
541.135	10.63
541.479	10.66
541.823	10.7
542.167	10.73
542.512	10.77
542.856	10.8
543.2	10.81
543.543	10.81
543.887	10.84
544.231	10.86
544.575	10.9
544.919	10.96
545.262	11.03
545.606	11.1
545.95	11.17
546.293	11.21
546.637	11.27
546.98	11.32
547.324	11.38
547.667	11.47
548.011	11.52
548.354	11.56
548.697	11.63
549.04	11.67
549.384	11.73
549.727	11.78
550.07	11.82
550.413	11.9
550.756	11.98
551.099	12.06
551.442	12.14
551.785	12.19
552.128	12.26
552.47	12.33
552.813	12.4
553.156	12.47
553.499	12.56
553.841	12.62
554.184	12.74
554.526	12.82
554.869	12.86
555.211	12.92
555.554	13
555.896	13.05
556.238	13.13
556.581	13.23
556.923	13.33
557.265	13.46
557.607	13.56
557.949	13.64
558.291	13.71
558.633	13.83
558.975	13.94
559.317	14.02
559.659	14.11
560.001	14.2
560.343	14.29
560.685	14.39
561.026	14.5
561.368	14.59
561.71	14.66
562.051	14.79
562.393	14.94
562.734	15.06
563.076	15.2
563.417	15.31
563.759	15.4
564.1	15.49
564.441	15.6
564.782	15.72
565.124	15.84
565.465	15.97
565.806	16.08
566.147	16.2
566.488	16.34
566.829	16.48
567.17	16.62
567.511	16.76
567.851	16.91
568.192	17.06
568.533	17.23
568.874	17.42
569.214	17.58
569.555	17.74
569.895	17.9
570.236	18.05
570.576	18.25
570.917	18.42
571.257	18.62
571.598	18.76
571.938	18.93
572.278	19.11
572.618	19.25
572.959	19.39
573.299	19.56
573.639	19.71
573.979	19.86
574.319	19.99
574.659	20.15
574.999	20.29
575.339	20.46
575.678	20.58
576.018	20.7
576.358	20.86
576.698	21.01
577.037	21.16
577.377	21.36
577.716	21.51
578.056	21.71
578.395	21.88
578.735	22.07
579.074	22.24
579.413	22.4
579.753	22.62
580.092	22.84
580.431	23.03
580.77	23.2
581.109	23.4
581.448	23.59
581.787	23.78
582.126	23.95
582.465	24.12
582.804	24.29
583.143	24.52
583.482	24.65
583.82	24.8
584.159	24.99
584.498	25.11
584.836	25.34
585.175	25.51
585.514	25.65
585.852	25.82
586.19	26
586.529	26.16
586.867	26.38
587.205	26.53
587.544	26.71
587.882	26.87
588.22	27.01
588.558	27.15
588.896	27.27
589.234	27.43
589.572	27.58
589.91	27.77
590.248	27.91
590.586	28.1
590.924	28.26
591.262	28.42
591.599	28.59
591.937	28.66
592.275	28.77
592.612	28.96
592.95	29.14
593.287	29.33
593.625	29.53
593.962	29.65
594.299	29.79
594.637	29.94
594.974	30.07
595.311	30.2
595.648	30.3
595.985	30.41
596.322	30.52
596.659	30.64
596.996	30.72
597.333	30.79
597.67	30.86
598.007	30.94
598.344	31.03
598.681	31.1
599.017	31.21
599.354	31.32
599.691	31.37
600.027	31.46
600.364	31.55
600.7	31.66
601.037	31.8
601.373	31.97
601.71	32.08
602.046	32.17
602.382	32.29
602.718	32.38
603.054	32.47
603.391	32.54
603.727	32.57
604.063	32.62
604.399	32.68
604.735	32.76
605.071	32.89
605.406	32.96
605.742	33.04
606.078	33.17
606.414	33.27
606.749	33.39
607.085	33.45
607.421	33.53
607.756	33.6
608.092	33.64
608.427	33.65
608.762	33.69
609.098	33.75
609.433	33.78
609.768	33.83
610.104	33.85
610.439	33.87
610.774	33.94
611.109	34
611.444	34.06
611.779	34.09
612.114	34.11
612.449	34.17
612.784	34.25
613.118	34.23
613.453	34.23
613.788	34.2
614.123	34.21
614.457	34.26
614.792	34.29
615.126	34.32
615.461	34.34
615.795	34.36
616.13	34.41
616.464	34.45
616.798	34.53
617.132	34.58
617.467	34.67
617.801	34.71
618.135	34.76
618.469	34.8
618.803	34.78
619.137	34.78
619.471	34.74
619.805	34.68
620.139	34.72
620.472	34.79
620.806	34.85
621.14	34.85
621.473	34.86
621.807	34.85
622.141	34.84
622.474	34.87
622.808	34.91
623.141	34.92
623.474	34.99
623.808	35.03
624.141	35.08
624.474	35.08
624.807	35.15
625.141	35.16
625.474	35.15
625.807	35.21
626.14	35.21
626.473	35.27
626.806	35.37
627.138	35.45
627.471	35.44
627.804	35.48
628.137	35.55
628.469	35.57
628.802	35.61
629.135	35.64
629.467	35.7
629.8	35.7
630.132	35.75
630.465	35.75
630.797	35.72
631.129	35.72
631.461	35.74
631.794	35.73
632.126	35.74
632.458	35.74
632.79	35.79
633.122	35.81
633.454	35.83
633.786	35.82
634.118	35.79
634.45	35.78
634.781	35.8
635.113	35.79
635.445	35.81
635.777	35.8
636.108	35.79
636.44	35.8
636.771	35.81
637.103	35.75
637.434	35.74
637.765	35.75
638.097	35.75
638.428	35.74
638.759	35.7
639.09	35.69
639.422	35.72
639.753	35.69
640.084	35.7
640.415	35.71
640.746	35.7
641.077	35.66
641.407	35.67
641.738	35.56
642.069	35.58
642.4	35.58
642.73	35.61
643.061	35.61
643.392	35.6
643.722	35.62
644.053	35.6
644.383	35.63
644.713	35.65
645.044	35.67
645.374	35.69
645.704	35.7
646.034	35.7
646.365	35.75
646.695	35.82
647.025	35.78
647.355	35.85
647.685	35.87
648.015	35.95
648.344	36
648.674	36.09
649.004	36.08
649.334	36.09
649.663	36.08
649.993	36.12
650.323	36.13
650.652	36.13
650.982	36.19
