Data from pcis_p_h3_p6_Reflection_5.txt Node
Date: Wed Jul 12 17:55:52 ART 2017
User: rodoncho
Spectrometer: USB2E3644
Trigger mode: 4
Integration Time (sec): 6.000000E-2
Scans to average: 10
Electric dark correction enabled: true
Nonlinearity correction enabled: false
Boxcar width: 10
XAxis mode: Wavelengths
Number of Pixels in Spectrum: 2048
>>>>>Begin Spectral Data<<<<<
178.315	1773.53
178.696	1757.14
179.076	369.34
179.457	166.44
179.838	109.32
180.218	43.45
180.599	810
180.979	41.18
181.36	23.94
181.74	-87.1
182.121	291.18
182.501	74.07
182.881	51.96
183.262	32.41
183.642	-56.8
184.022	377.59
184.402	200.54
184.783	194.52
185.163	177.59
185.543	174.25
185.923	175.6
186.303	204.5
186.683	217.87
187.063	182.69
187.443	154.17
187.823	141.37
188.203	126.75
188.583	131.09
188.963	126.59
189.343	124.71
189.723	122.01
190.102	120.98
190.482	118.3
190.862	119.3
191.242	119.12
191.621	115.81
192.001	122.85
192.38	125.27
192.76	126.11
193.14	123.96
193.519	117.59
193.898	111.25
194.278	106
194.657	103.34
195.037	103.21
195.416	104.13
195.795	104.22
196.175	107.98
196.554	111.2
196.933	113.33
197.312	113.81
197.692	113.75
198.071	113.99
198.45	113.86
198.829	112.65
199.208	109.41
199.587	109.17
199.966	107.69
200.345	105.08
200.724	102.79
201.103	102.94
201.482	105.14
201.86	109.25
202.239	111.97
202.618	112.63
202.997	114.12
203.375	115.38
203.754	115.98
204.133	114.18
204.511	111.93
204.89	110.39
205.269	109.35
205.647	108.81
206.026	108.93
206.404	107.35
206.782	108.01
207.161	109.75
207.539	110.58
207.918	111.56
208.296	113.72
208.674	116.1
209.052	114.89
209.431	113.86
209.809	112.21
210.187	110.02
210.565	110.39
210.943	109.14
211.321	107.58
211.699	106.87
212.077	106.89
212.455	106.61
212.833	107.71
213.211	107.19
213.589	107.83
213.967	107.01
214.345	107.22
214.722	106.05
215.1	106.45
215.478	106.19
215.855	106.1
216.233	104.09
216.611	103.54
216.988	103.81
217.366	104.19
217.743	105.11
218.121	105.18
218.498	104.26
218.876	103.99
219.253	104.14
219.631	103.85
220.008	103.78
220.385	103.32
220.762	102.38
221.14	102.14
221.517	102.5
221.894	103.55
222.271	104.15
222.648	106.01
223.025	107.16
223.402	106.99
223.78	106.39
224.157	107.84
224.533	107.92
224.91	107.69
225.287	107.78
225.664	107.49
226.041	109.65
226.418	110.6
226.795	111.63
227.171	111.89
227.548	112.32
227.925	113.03
228.301	114.96
228.678	115.32
229.055	115.44
229.431	115.12
229.808	115.72
230.184	115.64
230.561	114.26
230.937	112.81
231.313	112.88
231.69	113.59
232.066	113.9
232.442	114.04
232.819	114.99
233.195	114.75
233.571	114.58
233.947	113.18
234.323	112.48
234.699	112.25
235.075	112.09
235.451	112.11
235.827	112.81
236.203	111.51
236.579	112.87
236.955	114.83
237.331	116.39
237.707	117.72
238.083	119.99
238.459	125.52
238.834	131.19
239.21	136.6
239.586	143.1
239.961	148.15
240.337	150.73
240.713	155.51
241.088	162.4
241.464	166.78
241.839	176.52
242.215	187.38
242.59	204.5
242.965	240.95
243.341	323.51
243.716	475.5
244.091	912.6
244.467	2082.31
244.842	-7933.64
245.217	-1749
245.592	-1325.07
245.967	-1130.1
246.343	-1354.53
246.718	-1688.62
247.093	-1668.47
247.468	-1612.23
247.843	-1417.26
248.218	-921.16
248.593	-640.25
248.967	-508.44
249.342	-441.19
249.717	-461.28
250.092	-477.3
250.467	-548.73
250.841	-825.43
251.216	-3226.1
251.591	1764.74
251.965	748.74
252.34	570.49
252.714	484.38
253.089	426.51
253.463	397.6
253.838	405.31
254.212	430.77
254.587	472.78
254.961	542.21
255.335	777.05
255.71	4905.79
256.084	-815.93
256.458	-376.31
256.832	-254.87
257.206	-207.71
257.581	-180.93
257.955	-168.57
258.329	-158.09
258.703	-143.86
259.077	-134.23
259.451	-126.67
259.825	-119.49
260.199	-115.2
260.572	-111.55
260.946	-107.31
261.32	-104.69
261.694	-102.58
262.068	-99.72
262.441	-96.6
262.815	-93.44
263.189	-94.71
263.562	-100.24
263.936	-114.56
264.309	-135.5
264.683	-158.27
265.056	-171.35
265.43	-180.3
265.803	-175.27
266.176	-168.95
266.55	-168.95
266.923	-164.05
267.296	-154.7
267.67	-146.16
268.043	-133.94
268.416	-123.79
268.789	-111.77
269.162	-99.87
269.535	-93.19
269.908	-88.58
270.281	-86.38
270.654	-86.29
271.027	-87.35
271.4	-88.47
271.773	-89.47
272.146	-88.53
272.519	-84.68
272.891	-82.28
273.264	-81.62
273.637	-81.03
274.01	-80.59
274.382	-79.28
274.755	-78.92
275.127	-79.51
275.5	-80.13
275.872	-79.22
276.245	-79.62
276.617	-80.86
276.99	-85.22
277.362	-88.66
277.734	-90.99
278.107	-90.26
278.479	-86.21
278.851	-81.9
279.223	-78.45
279.596	-76.6
279.968	-75.95
280.34	-76.1
280.712	-74.25
281.084	-69.49
281.456	-63.86
281.828	-59.17
282.2	-54.2
282.572	-50.01
282.944	-47.23
283.315	-45.83
283.687	-45.15
284.059	-44.4
284.431	-43.81
284.802	-42.35
285.174	-40.4
285.546	-38.56
285.917	-37.95
286.289	-37.47
286.66	-36.58
287.032	-36.47
287.403	-36.07
287.775	-35.35
288.146	-34.81
288.518	-34.9
288.889	-34.93
289.26	-35.88
289.632	-36.57
290.003	-38.37
290.374	-39.74
290.745	-39.57
291.116	-38.55
291.487	-37.61
291.858	-36.71
292.229	-35.63
292.6	-33.67
292.971	-32.47
293.342	-31.07
293.713	-28.7
294.084	-27.03
294.455	-26
294.826	-24.95
295.196	-24.61
295.567	-24.11
295.938	-23.73
296.308	-23.58
296.679	-22.95
297.05	-22.54
297.42	-22.48
297.791	-21.27
298.161	-20.3
298.532	-19.91
298.902	-19.66
299.272	-19.34
299.643	-18.71
300.013	-18.36
300.383	-18.37
300.754	-18.12
301.124	-17.91
301.494	-18.04
301.864	-18.24
302.234	-18.42
302.604	-18.57
302.974	-18.17
303.344	-18.28
303.714	-18.17
304.084	-17.58
304.454	-17.53
304.824	-16.8
305.194	-15.87
305.563	-15.36
305.933	-14.62
306.303	-13.68
306.673	-13.37
307.042	-13.04
307.412	-12.22
307.781	-11.24
308.151	-10.4
308.521	-9.74
308.89	-9.46
309.259	-9.22
309.629	-8.99
309.998	-8.87
310.368	-8.65
310.737	-8.24
311.106	-7.82
311.475	-7.27
311.845	-7.04
312.214	-6.67
312.583	-6.4
312.952	-6.02
313.321	-5.93
313.69	-6.01
314.059	-6.31
314.428	-6.38
314.797	-6.42
315.166	-6.96
315.535	-7.61
315.904	-8.07
316.272	-8.45
316.641	-8.54
317.01	-8.81
317.379	-8.73
317.747	-8.4
318.116	-8.17
318.484	-7.96
318.853	-7.04
319.221	-6.82
319.59	-6.5
319.958	-6.66
320.327	-6.56
320.695	-6.31
321.063	-5.94
321.432	-5.14
321.8	-4.57
322.168	-3.84
322.536	-3.19
322.905	-2.48
323.273	-1.84
323.641	-1.36
324.009	-1.16
324.377	-0.96
324.745	-0.36
325.113	-0.02
325.481	0.53
325.849	1.25
326.216	1.71
326.584	1.83
326.952	2.16
327.32	2.65
327.687	3.39
328.055	3.8
328.423	4.07
328.79	4.32
329.158	4.14
329.525	4.37
329.893	4.6
330.26	4.77
330.628	4.82
330.995	5.09
331.362	5.42
331.73	5.95
332.097	6.34
332.464	6.43
332.831	6.54
333.199	6.71
333.566	6.72
333.933	6.71
334.3	6.68
334.667	6.88
335.034	6.87
335.401	6.89
335.768	6.97
336.135	7.07
336.502	7.32
336.868	7.69
337.235	7.98
337.602	8.25
337.969	8.43
338.335	8.86
338.702	9.15
339.069	9.21
339.435	9.34
339.802	9.54
340.168	9.79
340.535	10.1
340.901	10.28
341.267	10.54
341.634	10.94
342	11.21
342.366	11.41
342.733	11.7
343.099	12.04
343.465	12.38
343.831	12.6
344.197	12.59
344.563	12.64
344.929	12.79
345.295	12.94
345.661	13.13
346.027	13.32
346.393	13.35
346.759	13.43
347.125	13.47
347.491	13.61
347.856	13.7
348.222	13.65
348.588	13.72
348.953	13.83
349.319	13.97
349.684	14.13
350.05	14.22
350.415	14.31
350.781	14.35
351.146	14.38
351.512	14.53
351.877	14.84
352.242	15.12
352.608	15.16
352.973	15.2
353.338	15.21
353.703	15.22
354.068	15.43
354.433	15.7
354.798	15.9
355.164	15.98
355.528	16.13
355.893	16.37
356.258	16.47
356.623	16.55
356.988	16.59
357.353	16.69
357.718	16.89
358.082	17.07
358.447	17.2
358.812	17.38
359.176	17.46
359.541	17.49
359.905	17.56
360.27	17.67
360.634	17.91
360.999	18.05
361.363	18.17
361.728	18.21
362.092	18.22
362.456	18.32
362.821	18.47
363.185	18.6
363.549	18.7
363.913	18.81
364.277	18.88
364.641	18.96
365.005	19.03
365.369	19.13
365.733	19.17
366.097	19.3
366.461	19.34
366.825	19.38
367.189	19.48
367.553	19.6
367.916	19.82
368.28	19.85
368.644	19.97
369.007	20.08
369.371	20.23
369.734	20.34
370.098	20.44
370.461	20.53
370.825	20.59
371.188	20.74
371.552	20.9
371.915	20.94
372.278	21.02
372.642	21.22
373.005	21.28
373.368	21.36
373.731	21.41
374.094	21.51
374.457	21.56
374.82	21.61
375.183	21.67
375.546	21.66
375.909	21.74
376.272	21.8
376.635	21.86
376.998	21.9
377.361	21.91
377.723	21.96
378.086	22.04
378.449	22.18
378.811	22.23
379.174	22.23
379.537	22.32
379.899	22.41
380.262	22.37
380.624	22.37
380.987	22.43
381.349	22.43
381.711	22.46
382.074	22.6
382.436	22.69
382.798	22.7
383.16	22.8
383.522	22.86
383.884	22.92
384.247	23
384.609	23.11
384.971	23.2
385.333	23.23
385.695	23.21
386.056	23.18
386.418	23.16
386.78	23.23
387.142	23.27
387.504	23.33
387.865	23.33
388.227	23.41
388.589	23.42
388.95	23.45
389.312	23.47
389.673	23.44
390.035	23.4
390.396	23.47
390.758	23.43
391.119	23.4
391.48	23.41
391.842	23.37
392.203	23.28
392.564	23.26
392.925	23.25
393.286	23.28
393.648	23.23
394.009	23.26
394.37	23.27
394.731	23.23
395.092	23.17
395.452	23.19
395.813	23.15
396.174	23.16
396.535	23.16
396.896	23.13
397.257	23.14
397.617	23.15
397.978	23.1
398.338	23.14
398.699	23.16
399.06	23.15
399.42	23.09
399.781	23.1
400.141	23.08
400.501	23.06
400.862	23
401.222	23.06
401.582	23.04
401.943	22.97
402.303	22.97
402.663	22.98
403.023	22.95
403.383	22.96
403.743	22.95
404.103	22.99
404.463	23.04
404.823	23.04
405.183	23.06
405.543	23.07
405.903	23.04
406.262	23.02
406.622	23.01
406.982	23.04
407.342	23.1
407.701	23.11
408.061	23.09
408.42	23.11
408.78	23.06
409.139	23.09
409.499	23.08
409.858	23.11
410.217	23.13
410.577	23.11
410.936	23.1
411.295	23.08
411.655	23.04
412.014	22.99
412.373	22.95
412.732	22.88
413.091	22.81
413.45	22.7
413.809	22.63
414.168	22.53
414.527	22.47
414.886	22.33
415.245	22.24
415.603	22.16
415.962	22.06
416.321	21.96
416.679	21.87
417.038	21.76
417.397	21.63
417.755	21.51
418.114	21.43
418.472	21.33
418.831	21.27
419.189	21.2
419.547	21.11
419.906	21.04
420.264	20.96
420.622	20.91
420.981	20.87
421.339	20.81
421.697	20.76
422.055	20.71
422.413	20.67
422.771	20.63
423.129	20.6
423.487	20.58
423.845	20.57
424.203	20.53
424.56	20.51
424.918	20.5
425.276	20.51
425.634	20.53
425.991	20.53
426.349	20.51
426.707	20.51
427.064	20.53
427.422	20.55
427.779	20.59
428.137	20.59
428.494	20.61
428.851	20.64
429.209	20.68
429.566	20.68
429.923	20.7
430.28	20.73
430.637	20.78
430.995	20.8
431.352	20.81
431.709	20.86
432.066	20.92
432.423	20.99
432.78	21.02
433.137	21.04
433.493	21.07
433.85	21.15
434.207	21.17
434.564	21.21
434.92	21.23
435.277	21.24
435.634	21.28
435.99	21.3
436.347	21.31
436.703	21.35
437.06	21.4
437.416	21.45
437.773	21.49
438.129	21.49
438.485	21.5
438.841	21.51
439.198	21.51
439.554	21.52
439.91	21.51
440.266	21.49
440.622	21.47
440.978	21.44
441.334	21.35
441.69	21.3
442.046	21.2
442.402	21.13
442.758	21.03
443.113	20.96
443.469	20.88
443.825	20.82
444.181	20.74
444.536	20.69
444.892	20.61
445.247	20.55
445.603	20.48
445.958	20.42
446.314	20.37
446.669	20.29
447.025	20.21
447.38	20.16
447.735	20.09
448.09	20.03
448.446	19.98
448.801	19.94
449.156	19.88
449.511	19.84
449.866	19.82
450.221	19.82
450.576	19.79
450.931	19.77
451.286	19.74
451.641	19.71
451.995	19.64
452.35	19.62
452.705	19.59
453.06	19.61
453.414	19.62
453.769	19.63
454.123	19.66
454.478	19.7
454.832	19.68
455.187	19.69
455.541	19.7
455.896	19.76
456.25	19.78
456.604	19.83
456.958	19.87
457.313	19.91
457.667	19.95
458.021	20.02
458.375	20.11
458.729	20.21
459.083	20.29
459.437	20.38
459.791	20.48
460.145	20.55
460.499	20.65
460.852	20.72
461.206	20.82
461.56	20.94
461.914	21.06
462.267	21.19
462.621	21.35
462.974	21.56
463.328	21.74
463.681	21.97
464.035	22.2
464.388	22.43
464.742	22.63
465.095	22.86
465.448	23.03
465.801	23.18
466.155	23.33
466.508	23.47
466.861	23.62
467.214	23.75
467.567	23.88
467.92	24.01
468.273	24.12
468.626	24.24
468.979	24.32
469.332	24.42
469.684	24.51
470.037	24.58
470.39	24.64
470.743	24.73
471.095	24.79
471.448	24.83
471.8	24.88
472.153	24.92
472.505	24.88
472.858	24.87
473.21	24.84
473.562	24.77
473.915	24.73
474.267	24.66
474.619	24.58
474.971	24.47
475.324	24.36
475.676	24.26
476.028	24.15
476.38	24.03
476.732	23.9
477.084	23.77
477.436	23.64
477.787	23.46
478.139	23.31
478.491	23.15
478.843	22.96
479.195	22.75
479.546	22.49
479.898	22.22
480.249	21.96
480.601	21.8
480.952	21.65
481.304	21.5
481.655	21.4
482.007	21.32
482.358	21.26
482.709	21.21
483.061	21.14
483.412	21.08
483.763	21.06
484.114	21.04
484.465	21.03
484.816	21.02
485.167	21.02
485.518	21.02
485.869	21.03
486.22	21.05
486.571	21.09
486.922	21.15
487.272	21.23
487.623	21.36
487.974	21.49
488.324	21.67
488.675	21.86
489.025	22.02
489.376	22.17
489.726	22.32
490.077	22.48
490.427	22.65
490.778	22.85
491.128	23.06
491.478	23.3
491.828	23.57
492.179	23.86
492.529	24.19
492.879	24.5
493.229	24.82
493.579	25.11
493.929	25.41
494.279	25.71
494.629	26.03
494.979	26.4
495.328	26.82
495.678	27.3
496.028	27.8
496.378	28.28
496.727	28.74
497.077	29.14
497.426	29.57
497.776	29.97
498.125	30.35
498.475	30.71
498.824	31.07
499.174	31.4
499.523	31.74
499.872	32.06
500.221	32.43
500.571	32.81
500.92	33.21
501.269	33.58
501.618	33.98
501.967	34.38
502.316	34.78
502.665	35.18
503.014	35.48
503.363	35.82
503.711	36.11
504.06	36.42
504.409	36.75
504.758	37.03
505.106	37.31
505.455	37.58
505.803	37.82
506.152	38.03
506.5	38.27
506.849	38.49
507.197	38.74
507.546	38.98
507.894	39.19
508.242	39.4
508.59	39.6
508.939	39.76
509.287	39.89
509.635	40.02
509.983	40.18
510.331	40.36
510.679	40.53
511.027	40.68
511.375	40.82
511.723	40.99
512.07	41.14
512.418	41.32
512.766	41.49
513.114	41.65
513.461	41.81
513.809	41.93
514.156	42.07
514.504	42.2
514.851	42.28
515.199	42.42
515.546	42.52
515.893	42.64
516.241	42.76
516.588	42.9
516.935	43
517.282	43.05
517.63	43.13
517.977	43.19
518.324	43.27
518.671	43.39
519.018	43.46
519.365	43.54
519.711	43.58
520.058	43.62
520.405	43.7
520.752	43.77
521.099	43.85
521.445	43.94
521.792	44.04
522.138	44.15
522.485	44.2
522.832	44.32
523.178	44.41
523.524	44.51
523.871	44.61
524.217	44.71
524.563	44.83
524.91	44.97
525.256	45.11
525.602	45.21
525.948	45.24
526.294	45.26
526.64	45.3
526.986	45.36
527.332	45.4
527.678	45.43
528.024	45.46
528.37	45.5
528.716	45.54
529.061	45.57
529.407	45.64
529.753	45.71
530.098	45.78
530.444	45.83
530.789	45.87
531.135	45.9
531.48	45.94
531.826	46.01
532.171	46.07
532.516	46.11
532.862	46.19
533.207	46.28
533.552	46.37
533.897	46.45
534.242	46.51
534.587	46.56
534.932	46.62
535.277	46.69
535.622	46.74
535.967	46.81
536.312	46.89
536.657	46.91
537.001	47.03
537.346	47.11
537.691	47.19
538.035	47.29
538.38	47.38
538.724	47.41
539.069	47.42
539.413	47.44
539.758	47.45
540.102	47.49
540.446	47.48
540.791	47.51
541.135	47.54
541.479	47.57
541.823	47.62
542.167	47.66
542.512	47.68
542.856	47.71
543.2	47.72
543.543	47.76
543.887	47.81
544.231	47.82
544.575	47.86
544.919	47.9
545.262	47.92
545.606	47.96
545.95	48.03
546.293	48.1
546.637	48.18
546.98	48.31
547.324	48.39
547.667	48.52
548.011	48.59
548.354	48.66
548.697	48.71
549.04	48.77
549.384	48.8
549.727	48.87
550.07	48.94
550.413	49.02
550.756	49.07
551.099	49.14
551.442	49.19
551.785	49.22
552.128	49.28
552.47	49.35
552.813	49.38
553.156	49.43
553.499	49.49
553.841	49.49
554.184	49.46
554.526	49.46
554.869	49.46
555.211	49.49
555.554	49.53
555.896	49.61
556.238	49.64
556.581	49.71
556.923	49.74
557.265	49.74
557.607	49.82
557.949	49.87
558.291	49.92
558.633	50
558.975	50.06
559.317	50.08
559.659	50.08
560.001	50.09
560.343	50.13
560.685	50.14
561.026	50.18
561.368	50.24
561.71	50.27
562.051	50.3
562.393	50.31
562.734	50.32
563.076	50.29
563.417	50.3
563.759	50.31
564.1	50.37
564.441	50.41
564.782	50.41
565.124	50.39
565.465	50.36
565.806	50.35
566.147	50.36
566.488	50.39
566.829	50.42
567.17	50.44
567.511	50.46
567.851	50.46
568.192	50.49
568.533	50.5
568.874	50.57
569.214	50.64
569.555	50.65
569.895	50.66
570.236	50.7
570.576	50.73
570.917	50.71
571.257	50.72
571.598	50.74
571.938	50.73
572.278	50.78
572.618	50.83
572.959	50.86
573.299	50.85
573.639	50.83
573.979	50.84
574.319	50.88
574.659	50.86
574.999	50.87
575.339	50.85
575.678	50.86
576.018	50.83
576.358	50.77
576.698	50.76
577.037	50.79
577.377	50.77
577.716	50.75
578.056	50.78
578.395	50.74
578.735	50.77
579.074	50.81
579.413	50.82
579.753	50.83
580.092	50.84
580.431	50.88
580.77	50.96
581.109	50.95
581.448	50.96
581.787	50.98
582.126	51
582.465	51.08
582.804	51.08
583.143	51.06
583.482	51.1
583.82	51.15
584.159	51.19
584.498	51.19
584.836	51.26
585.175	51.29
585.514	51.33
585.852	51.35
586.19	51.35
586.529	51.35
586.867	51.35
587.205	51.35
587.544	51.36
587.882	51.32
588.22	51.33
588.558	51.32
588.896	51.3
589.234	51.28
589.572	51.24
589.91	51.23
590.248	51.31
590.586	51.3
590.924	51.29
591.262	51.27
591.599	51.35
591.937	51.34
592.275	51.33
592.612	51.4
592.95	51.39
593.287	51.38
593.625	51.39
593.962	51.4
594.299	51.44
594.637	51.44
594.974	51.49
595.311	51.51
595.648	51.51
595.985	51.53
596.322	51.52
596.659	51.52
596.996	51.56
597.333	51.54
597.67	51.54
598.007	51.55
598.344	51.59
598.681	51.51
599.017	51.54
599.354	51.56
599.691	51.56
600.027	51.57
600.364	51.57
600.7	51.61
601.037	51.64
601.373	51.61
601.71	51.63
602.046	51.64
602.382	51.67
602.718	51.63
603.054	51.62
603.391	51.66
603.727	51.67
604.063	51.68
604.399	51.67
604.735	51.67
605.071	51.68
605.406	51.67
605.742	51.7
606.078	51.68
606.414	51.69
606.749	51.69
607.085	51.65
607.421	51.67
607.756	51.63
608.092	51.6
608.427	51.58
608.762	51.52
609.098	51.47
609.433	51.45
609.768	51.47
610.104	51.48
610.439	51.48
610.774	51.51
611.109	51.5
611.444	51.49
611.779	51.49
612.114	51.47
612.449	51.47
612.784	51.47
613.118	51.48
613.453	51.43
613.788	51.36
614.123	51.39
614.457	51.4
614.792	51.48
615.126	51.52
615.461	51.5
615.795	51.53
616.13	51.54
616.464	51.55
616.798	51.6
617.132	51.67
617.467	51.7
617.801	51.66
618.135	51.64
618.469	51.63
618.803	51.59
619.137	51.6
619.471	51.59
619.805	51.63
620.139	51.62
620.472	51.65
620.806	51.7
621.14	51.67
621.473	51.63
621.807	51.52
622.141	51.45
622.474	51.51
622.808	51.51
623.141	51.5
623.474	51.51
623.808	51.53
624.141	51.48
624.474	51.49
624.807	51.52
625.141	51.57
625.474	51.58
625.807	51.57
626.14	51.6
626.473	51.61
626.806	51.63
627.138	51.63
627.471	51.65
627.804	51.62
628.137	51.66
628.469	51.66
628.802	51.71
629.135	51.71
629.467	51.64
629.8	51.64
630.132	51.7
630.465	51.69
630.797	51.64
631.129	51.62
631.461	51.58
631.794	51.51
632.126	51.46
632.458	51.44
632.79	51.57
633.122	51.59
633.454	51.58
633.786	51.52
634.118	51.52
634.45	51.49
634.781	51.5
635.113	51.45
635.445	51.46
635.777	51.44
636.108	51.5
636.44	51.59
636.771	51.57
637.103	51.56
637.434	51.56
637.765	51.58
638.097	51.64
638.428	51.65
638.759	51.71
639.09	51.68
639.422	51.68
639.753	51.67
640.084	51.66
640.415	51.72
640.746	51.7
641.077	51.69
641.407	51.69
641.738	51.68
642.069	51.75
642.4	51.79
642.73	51.83
643.061	51.81
643.392	51.84
643.722	51.95
