Data from pcis_p_m3_p3_Reflection_5.txt Node
Date: Wed Jul 12 17:46:23 ART 2017
User: rodoncho
Spectrometer: USB2E3644
Trigger mode: 4
Integration Time (sec): 6.000000E-2
Scans to average: 10
Electric dark correction enabled: true
Nonlinearity correction enabled: false
Boxcar width: 10
XAxis mode: Wavelengths
Number of Pixels in Spectrum: 2048
>>>>>Begin Spectral Data<<<<<
178.315	30.71
178.696	55.63
179.076	88.37
179.457	129.48
179.838	222.78
180.218	554.55
180.599	-90.53
180.979	75
181.36	246.15
181.74	-38.83
182.121	28.03
182.501	100.94
182.881	91.17
183.262	47.15
183.642	-191.58
184.022	279.34
184.402	206.64
184.783	146.84
185.163	121.3
185.543	121.22
185.923	135.17
186.303	162.9
186.683	174.37
187.063	184.83
187.443	199.41
187.823	199.43
188.203	180.9
188.583	179.18
188.963	170.91
189.343	172.46
189.723	175.85
190.102	182.43
190.482	177.53
190.862	179.43
191.242	173.85
191.621	168.02
192.001	172.01
192.38	158.15
192.76	155.55
193.14	158.56
193.519	155.34
193.898	146.56
194.278	138.05
194.657	133.41
195.037	133.75
195.416	131.16
195.795	130.46
196.175	130.12
196.554	128.88
196.933	126.48
197.312	124.84
197.692	125.46
198.071	122.79
198.45	119.52
198.829	119.04
199.208	118.36
199.587	116.32
199.966	115.01
200.345	115.19
200.724	116.61
201.103	117.94
201.482	116.9
201.86	116.49
202.239	117.53
202.618	118.73
202.997	118.5
203.375	116.7
203.754	117.29
204.133	117.74
204.511	117.15
204.89	117.98
205.269	118
205.647	117.7
206.026	119.86
206.404	118.91
206.782	115.98
207.161	116.11
207.539	116.42
207.918	117.43
208.296	117.9
208.674	114.82
209.052	111.78
209.431	112.66
209.809	113.66
210.187	112.81
210.565	112.82
210.943	112.78
211.321	113.54
211.699	111.88
212.077	111.24
212.455	110.86
212.833	110.56
213.211	109.76
213.589	109.35
213.967	107.97
214.345	108.06
214.722	108.68
215.1	109.12
215.478	109.85
215.855	109.48
216.233	109.83
216.611	111.17
216.988	112.37
217.366	112.22
217.743	111.25
218.121	110.35
218.498	110.09
218.876	110
219.253	111.5
219.631	113.86
220.008	114.63
220.385	115.5
220.762	115.3
221.14	114.61
221.517	115.8
221.894	117.31
222.271	119.25
222.648	120.2
223.025	119.23
223.402	120.15
223.78	122.06
224.157	123.73
224.533	125.91
224.91	125.75
225.287	125.94
225.664	126.33
226.041	128.24
226.418	128.78
226.795	127.21
227.171	125.75
227.548	126.04
227.925	126.79
228.301	127.21
228.678	127.11
229.055	129.93
229.431	130.31
229.808	128
230.184	126.09
230.561	125.79
230.937	125.99
231.313	124.41
231.69	123.41
232.066	122.86
232.442	121.43
232.819	121.73
233.195	121.33
233.571	121.83
233.947	122.85
234.323	123.41
234.699	124.69
235.075	126.37
235.451	125.88
235.827	125.69
236.203	125.7
236.579	128.9
236.955	129.93
237.331	131.16
237.707	134.62
238.083	137.53
238.459	142.56
238.834	149.04
239.21	155.25
239.586	162.35
239.961	167.45
240.337	173.26
240.713	179.19
241.088	186.09
241.464	192.14
241.839	198.33
242.215	207.99
242.59	223.78
242.965	263.54
243.341	352.87
243.716	578.79
244.091	1439.94
244.467	23956.76
244.842	-1750.91
245.217	-847.15
245.592	-722.1
245.967	-693.44
246.343	-763.43
246.718	-804.36
247.093	-754.13
247.468	-783.89
247.843	-666.4
248.218	-519.77
248.593	-421.68
248.967	-374.78
249.342	-334.96
249.717	-330.22
250.092	-329.73
250.467	-349.08
250.841	-449.7
251.216	-773.12
251.591	-3053.09
251.965	1767.98
252.34	913.98
252.714	678.19
253.089	552.45
253.463	537.71
253.838	591.05
254.212	698.62
254.587	901.14
254.961	1410.66
255.335	-18412.77
255.71	-936.11
256.084	-378.58
256.458	-226.73
256.832	-162.42
257.206	-136.06
257.581	-124.6
257.955	-117.6
258.329	-111.72
258.703	-104.5
259.077	-97.53
259.451	-93.41
259.825	-87.47
260.199	-83.94
260.572	-81.5
260.946	-77.9
261.32	-75.57
261.694	-74.29
262.068	-73.2
262.441	-72.31
262.815	-71.05
263.189	-70.91
263.562	-74.38
263.936	-84.58
264.309	-100.21
264.683	-119.24
265.056	-135.54
265.43	-140
265.803	-139.51
266.176	-134.31
266.55	-134.81
266.923	-133.56
267.296	-128.42
267.67	-122.23
268.043	-111.34
268.416	-101.93
268.789	-91.89
269.162	-83.08
269.535	-77.49
269.908	-73.19
270.281	-70.89
270.654	-71.08
271.027	-73.71
271.4	-75.3
271.773	-75.86
272.146	-74.14
272.519	-69.89
272.891	-66.84
273.264	-65.78
273.637	-64.9
274.01	-65.26
274.382	-64.13
274.755	-62.97
275.127	-63.23
275.5	-64.09
275.872	-64.62
276.245	-64.46
276.617	-66.04
276.99	-69.23
277.362	-71.63
277.734	-73.09
278.107	-72.06
278.479	-68.54
278.851	-64.09
279.223	-59.92
279.596	-57.69
279.968	-57.25
280.34	-57.68
280.712	-56.33
281.084	-52.64
281.456	-48.29
281.828	-44.74
282.2	-40.93
282.572	-38.62
282.944	-36.53
283.315	-35.26
283.687	-34.95
284.059	-34.87
284.431	-34.36
284.802	-33.56
285.174	-32.02
285.546	-30.55
285.917	-30.22
286.289	-29.62
286.66	-29.07
287.032	-29.02
287.403	-28.44
287.775	-28.19
288.146	-28.36
288.518	-28.27
288.889	-28.72
289.26	-29.85
289.632	-30.25
290.003	-31.58
290.374	-32.64
290.745	-32.83
291.116	-32.49
291.487	-31.5
291.858	-30.78
292.229	-30.07
292.6	-29.09
292.971	-28.27
293.342	-26.51
293.713	-24.22
294.084	-23.3
294.455	-23.02
294.826	-21.87
295.196	-21.69
295.567	-21.15
295.938	-20.41
296.308	-20.29
296.679	-19.5
297.05	-18.9
297.42	-18.58
297.791	-17.73
298.161	-16.65
298.532	-15.73
298.902	-15.16
299.272	-14.66
299.643	-13.86
300.013	-13.14
300.383	-12.02
300.754	-11.5
301.124	-11.68
301.494	-11.71
301.864	-11.33
302.234	-11.08
302.604	-11.54
302.974	-11.11
303.344	-10.62
303.714	-10.27
304.084	-9.13
304.454	-8.65
304.824	-7.55
305.194	-6.43
305.563	-5.6
305.933	-4.75
306.303	-3.67
306.673	-2.81
307.042	-1.99
307.412	-1.04
307.781	0.2
308.151	0.67
308.521	1.21
308.89	1.56
309.259	1.98
309.629	2.52
309.998	3.14
310.368	3.7
310.737	4.08
311.106	4.66
311.475	5.3
311.845	5.81
312.214	6.34
312.583	6.68
312.952	7.08
313.321	7.46
313.69	7.95
314.059	7.94
314.428	8.1
314.797	7.95
315.166	7.7
315.535	7.42
315.904	7.5
316.272	7.58
316.641	7.82
317.01	7.96
317.379	8.19
317.747	8.52
318.116	8.97
318.484	9.26
318.853	9.83
319.221	10.08
319.59	10.32
319.958	10.76
320.327	11.23
320.695	11.58
321.063	12.02
321.432	12.43
321.8	12.96
322.168	13.67
322.536	14.53
322.905	15.49
323.273	15.82
323.641	16.2
324.009	16.63
324.377	16.99
324.745	17.44
325.113	17.77
325.481	18.37
325.849	19.01
326.216	19.6
326.584	19.69
326.952	20.19
327.32	20.58
327.687	20.83
328.055	21.03
328.423	21.2
328.79	21.65
329.158	21.56
329.525	21.86
329.893	21.95
330.26	22.28
330.628	22.27
330.995	22.63
331.362	23.08
331.73	23.49
332.097	23.84
332.464	23.99
332.831	24.18
333.199	24.31
333.566	24.4
333.933	24.48
334.3	24.62
334.667	24.75
335.034	24.87
335.401	25.02
335.768	25.16
336.135	25.51
336.502	25.65
336.868	25.96
337.235	26.19
337.602	26.5
337.969	26.72
338.335	27.01
338.702	27.2
339.069	27.37
339.435	27.63
339.802	27.65
340.168	27.96
340.535	28.21
340.901	28.18
341.267	28.36
341.634	28.67
342	28.79
342.366	28.85
342.733	29.01
343.099	29.04
343.465	29.21
343.831	29.28
344.197	29.35
344.563	29.46
344.929	29.59
345.295	29.82
345.661	29.98
346.027	30.09
346.393	30.29
346.759	30.32
347.125	30.31
347.491	30.56
347.856	30.65
348.222	30.66
348.588	30.94
348.953	30.95
349.319	31.01
349.684	31.17
350.05	31.26
350.415	31.3
350.781	31.41
351.146	31.46
351.512	31.61
351.877	31.62
352.242	31.65
352.608	31.6
352.973	31.47
353.338	31.3
353.703	31.26
354.068	31.3
354.433	31.25
354.798	31.31
355.164	31.31
355.528	31.22
355.893	31.1
356.258	31.01
356.623	31
356.988	30.89
357.353	30.87
357.718	30.78
358.082	30.7
358.447	30.53
358.812	30.44
359.176	30.17
359.541	30.1
359.905	29.99
360.27	29.91
360.634	29.87
360.999	29.82
361.363	29.7
361.728	29.47
362.092	29.41
362.456	29.19
362.821	29.01
363.185	28.88
363.549	28.87
363.913	28.69
364.277	28.48
364.641	28.3
365.005	28.15
365.369	28
365.733	27.82
366.097	27.84
366.461	27.75
366.825	27.65
367.189	27.55
367.553	27.52
367.916	27.31
368.28	27.13
368.644	27.09
369.007	26.97
369.371	26.76
369.734	26.52
370.098	26.47
370.461	26.45
370.825	26.26
371.188	26.11
371.552	26.06
371.915	25.93
372.278	25.81
372.642	25.61
373.005	25.47
373.368	25.32
373.731	25.1
374.094	24.87
374.457	24.65
374.82	24.43
375.183	24.17
375.546	24.04
375.909	23.8
376.272	23.54
376.635	23.33
376.998	23.22
377.361	23.09
377.723	22.8
378.086	22.56
378.449	22.37
378.811	22.22
379.174	22.03
379.537	21.89
379.899	21.85
380.262	21.74
380.624	21.56
380.987	21.39
381.349	21.19
381.711	21.06
382.074	21.02
382.436	20.97
382.798	20.79
383.16	20.65
383.522	20.61
383.884	20.52
384.247	20.43
384.609	20.31
384.971	20.21
385.333	20.13
385.695	20.01
386.056	19.92
386.418	19.79
386.78	19.7
387.142	19.54
387.504	19.32
387.865	19.18
388.227	19.05
388.589	18.97
388.95	18.9
389.312	18.78
389.673	18.54
390.035	18.33
390.396	18.18
390.758	18.01
391.119	17.79
391.48	17.62
391.842	17.4
392.203	17.25
392.564	17.06
392.925	16.88
393.286	16.71
393.648	16.55
394.009	16.37
394.37	16.13
394.731	15.94
395.092	15.7
395.452	15.53
395.813	15.36
396.174	15.15
396.535	14.97
396.896	14.78
397.257	14.68
397.617	14.54
397.978	14.41
398.338	14.27
398.699	14.16
399.06	14
399.42	13.88
399.781	13.71
400.141	13.55
400.501	13.45
400.862	13.37
401.222	13.26
401.582	13.18
401.943	13.12
402.303	13.07
402.663	13.05
403.023	12.99
403.383	12.93
403.743	12.92
404.103	12.87
404.463	12.87
404.823	12.84
405.183	12.78
405.543	12.77
405.903	12.76
406.262	12.74
406.622	12.73
406.982	12.73
407.342	12.77
407.701	12.81
408.061	12.78
408.42	12.75
408.78	12.7
409.139	12.66
409.499	12.63
409.858	12.64
410.217	12.62
410.577	12.62
410.936	12.58
411.295	12.53
411.655	12.49
412.014	12.39
412.373	12.3
412.732	12.21
413.091	12.1
413.45	11.96
413.809	11.85
414.168	11.73
414.527	11.57
414.886	11.42
415.245	11.28
415.603	11.16
415.962	11.01
416.321	10.88
416.679	10.75
417.038	10.61
417.397	10.47
417.755	10.31
418.114	10.17
418.472	10.05
418.831	9.96
419.189	9.86
419.547	9.78
419.906	9.69
420.264	9.6
420.622	9.54
420.981	9.45
421.339	9.37
421.697	9.29
422.055	9.25
422.413	9.2
422.771	9.15
423.129	9.12
423.487	9.1
423.845	9.07
424.203	9.06
424.56	9.06
424.918	9.05
425.276	9.07
425.634	9.08
425.991	9.09
426.349	9.09
426.707	9.1
427.064	9.12
427.422	9.13
427.779	9.18
428.137	9.19
428.494	9.27
428.851	9.33
429.209	9.39
429.566	9.4
429.923	9.41
430.28	9.42
430.637	9.42
430.995	9.41
431.352	9.45
431.709	9.46
432.066	9.47
432.423	9.5
432.78	9.52
433.137	9.53
433.493	9.54
433.85	9.57
434.207	9.55
434.564	9.54
434.92	9.55
435.277	9.55
435.634	9.58
435.99	9.56
436.347	9.56
436.703	9.56
437.06	9.54
437.416	9.55
437.773	9.54
438.129	9.54
438.485	9.55
438.841	9.53
439.198	9.52
439.554	9.51
439.91	9.47
440.266	9.42
440.622	9.41
440.978	9.37
441.334	9.31
441.69	9.27
442.046	9.23
442.402	9.16
442.758	9.09
443.113	9.03
443.469	8.95
443.825	8.89
444.181	8.86
444.536	8.83
444.892	8.78
445.247	8.75
445.603	8.73
445.958	8.71
446.314	8.68
446.669	8.66
447.025	8.64
447.38	8.62
447.735	8.61
448.09	8.57
448.446	8.56
448.801	8.55
449.156	8.56
449.511	8.55
449.866	8.58
450.221	8.61
450.576	8.62
450.931	8.65
451.286	8.67
451.641	8.67
451.995	8.67
452.35	8.7
452.705	8.73
453.06	8.72
453.414	8.75
453.769	8.77
454.123	8.77
454.478	8.76
454.832	8.76
455.187	8.76
455.541	8.76
455.896	8.74
456.25	8.73
456.604	8.69
456.958	8.67
457.313	8.64
457.667	8.63
458.021	8.63
458.375	8.65
458.729	8.68
459.083	8.7
459.437	8.73
459.791	8.74
460.145	8.77
460.499	8.81
460.852	8.83
461.206	8.86
461.56	8.92
461.914	8.98
462.267	9.03
462.621	9.11
462.974	9.2
463.328	9.32
463.681	9.44
464.035	9.6
464.388	9.75
464.742	9.89
465.095	10.04
465.448	10.17
465.801	10.3
466.155	10.42
466.508	10.54
466.861	10.66
467.214	10.77
467.567	10.86
467.92	10.95
468.273	11.05
468.626	11.16
468.979	11.23
469.332	11.3
469.684	11.36
470.037	11.43
470.39	11.48
470.743	11.53
471.095	11.57
471.448	11.59
471.8	11.63
472.153	11.64
472.505	11.62
472.858	11.6
473.21	11.54
473.562	11.47
473.915	11.38
474.267	11.28
474.619	11.2
474.971	11.09
475.324	10.98
475.676	10.85
476.028	10.73
476.38	10.6
476.732	10.47
477.084	10.35
477.436	10.19
477.787	10.08
478.139	9.93
478.491	9.79
478.843	9.63
479.195	9.48
479.546	9.29
479.898	9.07
480.249	8.88
480.601	8.72
480.952	8.61
481.304	8.51
481.655	8.43
482.007	8.36
482.358	8.31
482.709	8.27
483.061	8.24
483.412	8.21
483.763	8.19
484.114	8.16
484.465	8.15
484.816	8.14
485.167	8.13
485.518	8.11
485.869	8.12
486.22	8.13
486.571	8.14
486.922	8.17
487.272	8.22
487.623	8.28
487.974	8.37
488.324	8.46
488.675	8.56
489.025	8.66
489.376	8.75
489.726	8.85
490.077	8.95
490.427	9.06
490.778	9.19
491.128	9.35
491.478	9.54
491.828	9.76
492.179	10
492.529	10.29
492.879	10.59
493.229	10.92
493.579	11.24
493.929	11.57
494.279	11.93
494.629	12.35
494.979	12.85
495.328	13.45
495.678	14.12
496.028	14.85
496.378	15.57
496.727	16.31
497.077	17.05
497.426	17.79
497.776	18.53
498.125	19.25
498.475	19.99
498.824	20.74
499.174	21.51
499.523	22.34
499.872	23.22
500.221	24.17
500.571	25.18
500.92	26.23
501.269	27.27
501.618	28.31
501.967	29.33
502.316	30.38
502.665	31.42
503.014	32.44
503.363	33.45
503.711	34.45
504.06	35.45
504.409	36.42
504.758	37.38
505.106	38.26
505.455	39.18
505.803	40.01
506.152	40.8
506.5	41.56
506.849	42.26
507.197	42.94
507.546	43.62
507.894	44.25
508.242	44.92
508.59	45.53
508.939	46.07
509.287	46.61
509.635	47.12
509.983	47.61
510.331	48.07
510.679	48.5
511.027	48.89
511.375	49.31
511.723	49.72
512.07	50.11
512.418	50.56
512.766	50.94
513.114	51.33
513.461	51.7
513.809	52.03
514.156	52.39
514.504	52.77
514.851	53.09
515.199	53.46
515.546	53.76
515.893	54.05
516.241	54.33
516.588	54.6
516.935	54.82
517.282	55
517.63	55.2
517.977	55.36
518.324	55.55
518.671	55.7
519.018	55.86
519.365	56.01
519.711	56.15
520.058	56.28
520.405	56.42
520.752	56.55
521.099	56.75
521.445	56.92
521.792	57.05
522.138	57.22
522.485	57.36
522.832	57.53
523.178	57.71
523.524	57.85
523.871	57.98
524.217	58.09
524.563	58.34
524.91	58.56
525.256	58.8
525.602	58.95
525.948	59.06
526.294	59.11
526.64	59.17
526.986	59.23
527.332	59.3
527.678	59.36
528.024	59.4
528.37	59.46
528.716	59.48
529.061	59.53
529.407	59.6
529.753	59.68
530.098	59.74
530.444	59.76
530.789	59.81
531.135	59.85
531.48	59.9
531.826	59.93
532.171	59.95
532.516	59.95
532.862	59.98
533.207	60.03
533.552	60.1
533.897	60.11
534.242	60.13
534.587	60.16
534.932	60.18
535.277	60.22
535.622	60.23
535.967	60.3
536.312	60.35
536.657	60.36
537.001	60.36
537.346	60.4
537.691	60.48
538.035	60.51
538.38	60.55
538.724	60.57
539.069	60.55
539.413	60.56
539.758	60.55
540.102	60.55
540.446	60.56
540.791	60.56
541.135	60.62
541.479	60.64
541.823	60.63
542.167	60.62
542.512	60.59
542.856	60.52
543.2	60.48
543.543	60.44
543.887	60.44
544.231	60.42
544.575	60.36
544.919	60.29
545.262	60.26
545.606	60.21
545.95	60.15
546.293	60.14
546.637	60.1
546.98	60.04
547.324	59.99
547.667	59.9
548.011	59.84
548.354	59.72
548.697	59.59
549.04	59.49
549.384	59.4
549.727	59.32
550.07	59.25
550.413	59.17
550.756	59.07
551.099	58.96
551.442	58.85
551.785	58.77
552.128	58.68
552.47	58.6
552.813	58.48
553.156	58.38
553.499	58.29
553.841	58.16
554.184	58.08
554.526	57.94
554.869	57.87
555.211	57.78
555.554	57.69
555.896	57.65
556.238	57.58
556.581	57.49
556.923	57.38
557.265	57.3
557.607	57.16
557.949	57.08
558.291	56.97
558.633	56.88
558.975	56.68
559.317	56.57
559.659	56.41
560.001	56.31
560.343	56.15
560.685	56.01
561.026	55.92
561.368	55.83
561.71	55.7
562.051	55.58
562.393	55.47
562.734	55.36
563.076	55.2
563.417	55
563.759	54.83
564.1	54.67
564.441	54.51
564.782	54.38
565.124	54.19
565.465	54.05
565.806	53.9
566.147	53.83
566.488	53.69
566.829	53.59
567.17	53.46
567.511	53.36
567.851	53.21
568.192	53.05
568.533	52.88
568.874	52.76
569.214	52.6
569.555	52.43
569.895	52.26
570.236	52.08
570.576	51.98
570.917	51.82
571.257	51.71
571.598	51.57
571.938	51.44
572.278	51.3
572.618	51.2
572.959	51.08
573.299	50.96
573.639	50.86
573.979	50.73
574.319	50.59
574.659	50.43
574.999	50.31
575.339	50.16
575.678	50.01
576.018	49.83
576.358	49.64
576.698	49.44
577.037	49.25
577.377	49.13
577.716	48.93
578.056	48.8
578.395	48.62
578.735	48.46
579.074	48.27
579.413	48.13
579.753	47.94
580.092	47.77
580.431	47.57
580.77	47.36
581.109	47.15
581.448	46.95
581.787	46.8
582.126	46.62
582.465	46.45
582.804	46.29
583.143	46.18
583.482	46.01
583.82	45.84
584.159	45.66
584.498	45.45
584.836	45.31
585.175	45.13
585.514	44.95
585.852	44.8
586.19	44.61
586.529	44.42
586.867	44.23
587.205	44.02
587.544	43.86
587.882	43.69
588.22	43.55
588.558	43.47
588.896	43.31
589.234	43.18
589.572	43.03
589.91	42.86
590.248	42.67
590.586	42.52
590.924	42.4
591.262	42.27
591.599	42.15
591.937	41.99
592.275	41.81
592.612	41.69
592.95	41.49
593.287	41.36
593.625	41.21
593.962	41.06
594.299	40.97
594.637	40.83
594.974	40.7
595.311	40.56
595.648	40.41
595.985	40.28
596.322	40.14
596.659	40.01
596.996	39.9
597.333	39.77
597.67	39.67
598.007	39.54
598.344	39.42
598.681	39.27
599.017	39.14
599.354	39.03
599.691	38.81
600.027	38.68
600.364	38.52
600.7	38.34
601.037	38.13
601.373	37.93
601.71	37.79
602.046	37.63
602.382	37.46
602.718	37.31
603.054	37.18
603.391	37.06
603.727	36.97
604.063	36.86
604.399	36.72
604.735	36.59
605.071	36.47
605.406	36.34
605.742	36.21
606.078	36.1
606.414	35.99
606.749	35.93
607.085	35.79
607.421	35.62
607.756	35.5
608.092	35.35
608.427	35.21
608.762	35.04
609.098	34.86
609.433	34.73
609.768	34.58
610.104	34.46
610.439	34.34
610.774	34.18
611.109	34.06
611.444	34
611.779	33.88
612.114	33.77
612.449	33.66
612.784	33.51
613.118	33.39
613.453	33.2
613.788	33.03
614.123	32.87
614.457	32.73
614.792	32.63
615.126	32.46
615.461	32.33
615.795	32.17
616.13	32.09
616.464	31.98
616.798	31.88
617.132	31.73
617.467	31.65
617.801	31.55
618.135	31.45
618.469	31.31
618.803	31.2
619.137	31.1
619.471	30.98
619.805	30.86
620.139	30.69
620.472	30.6
620.806	30.49
621.14	30.35
621.473	30.26
621.807	30.09
622.141	29.97
622.474	29.83
622.808	29.79
623.141	29.68
623.474	29.6
623.808	29.53
624.141	29.41
624.474	29.31
624.807	29.23
625.141	29.17
625.474	29.1
625.807	29.05
626.14	28.98
626.473	28.95
626.806	28.9
627.138	28.86
627.471	28.76
627.804	28.68
628.137	28.63
628.469	28.54
628.802	28.44
629.135	28.38
629.467	28.31
629.8	28.16
630.132	28.05
630.465	27.95
630.797	27.83
631.129	27.74
631.461	27.68
631.794	27.58
632.126	27.49
632.458	27.39
632.79	27.24
633.122	27.17
633.454	27.01
633.786	26.93
634.118	26.85
634.45	26.82
634.781	26.71
635.113	26.62
635.445	26.56
635.777	26.48
636.108	26.41
636.44	26.31
636.771	26.26
637.103	26.17
637.434	26.08
637.765	26.03
638.097	26
638.428	25.82
638.759	25.77
639.09	25.64
639.422	25.55
639.753	25.5
640.084	25.37
640.415	25.37
640.746	25.27
641.077	25.13
641.407	25.06
641.738	24.99
642.069	24.95
642.4	24.89
642.73	24.83
643.061	24.75
643.392	24.72
643.722	24.69
644.053	24.62
644.383	24.53
644.713	24.47
645.044	24.31
645.374	24.28
645.704	24.18
646.034	24.13
646.365	24.08
646.695	24.03
647.025	23.96
647.355	23.85
647.685	23.82
