Data from pcis_c_m2_p3_Reflection_4.txt Node
Date: Wed Jul 12 17:33:40 ART 2017
User: rodoncho
Spectrometer: USB2E3644
Trigger mode: 4
Integration Time (sec): 6.000000E-2
Scans to average: 10
Electric dark correction enabled: true
Nonlinearity correction enabled: false
Boxcar width: 10
XAxis mode: Wavelengths
Number of Pixels in Spectrum: 2048
>>>>>Begin Spectral Data<<<<<
178.315	-44.12
178.696	412.5
179.076	162.24
179.457	101.47
179.838	60
180.218	22.06
180.599	58.93
180.979	147.37
181.36	206.9
181.74	507.69
182.121	48.65
182.501	112.1
182.881	120.87
183.262	161.54
183.642	562.5
184.022	62.2
184.402	118.11
184.783	140.88
185.163	147.93
185.543	126.06
185.923	123.18
186.303	114.64
186.683	109.03
187.063	107.36
187.443	110.55
187.823	115.48
188.203	113.08
188.583	113.48
188.963	115.38
189.343	121.3
189.723	121.82
190.102	121.09
190.482	124.38
190.862	124.3
191.242	128.98
191.621	128.05
192.001	131.31
192.38	125.61
192.76	122.55
193.14	119.63
193.519	119.84
193.898	117.14
194.278	114.1
194.657	111.8
195.037	110.87
195.416	106.78
195.795	103.96
196.175	105.74
196.554	106.74
196.933	106.56
197.312	104.89
197.692	102.92
198.071	102
198.45	101.69
198.829	100.75
199.208	98.99
199.587	98.19
199.966	99.37
200.345	100.65
200.724	101.24
201.103	101.03
201.482	100.65
201.86	102.81
202.239	105.3
202.618	108.88
202.997	108.37
203.375	109.29
203.754	109.04
204.133	107.62
204.511	108.07
204.89	107.67
205.269	106.6
205.647	107.34
206.026	107.72
206.404	106.77
206.782	106.06
207.161	107.89
207.539	109.07
207.918	107.94
208.296	107.81
208.674	107.77
209.052	107.56
209.431	108.85
209.809	109.03
210.187	109.41
210.565	108.43
210.943	109.93
211.321	111.77
211.699	113.11
212.077	113.83
212.455	112.96
212.833	112.06
213.211	112.23
213.589	112.36
213.967	112.04
214.345	113.76
214.722	115.23
215.1	114.43
215.478	113.92
215.855	113.44
216.233	113.97
216.611	113.84
216.988	113.74
217.366	113.34
217.743	112.7
218.121	111.3
218.498	110.15
218.876	110.1
219.253	107.88
219.631	108.08
220.008	109.03
220.385	110.21
220.762	111.64
221.14	112.95
221.517	112.11
221.894	112.61
222.271	110.33
222.648	110.14
223.025	110.31
223.402	110.75
223.78	111.01
224.157	109.95
224.533	109.31
224.91	110.35
225.287	111.19
225.664	111.08
226.041	111.52
226.418	112.62
226.795	114.04
227.171	116.78
227.548	117.52
227.925	117.09
228.301	116.65
228.678	115.85
229.055	115.13
229.431	117.1
229.808	118.67
230.184	121.35
230.561	122.16
230.937	122.25
231.313	122.54
231.69	123.04
232.066	123.58
232.442	124.65
232.819	124.97
233.195	124.72
233.571	125.15
233.947	125.31
234.323	124.83
234.699	122.95
235.075	120.14
235.451	118.75
235.827	118.81
236.203	119.39
236.579	120.57
236.955	121.88
237.331	122.58
237.707	124.15
238.083	124.33
238.459	126.26
238.834	129.73
239.21	131.55
239.586	135.64
239.961	138.55
240.337	141.06
240.713	142.85
241.088	145.73
241.464	148.34
241.839	154.68
242.215	160.65
242.59	171.46
242.965	200.67
243.341	256.17
243.716	347.5
244.091	512.98
244.467	830.3
244.842	1606.14
245.217	8475
245.592	-9491.49
245.967	-3525
246.343	-4022.12
246.718	-8586.79
247.093	-3607.2
247.468	-2558.52
247.843	-1957.83
248.218	-1086.59
248.593	-696.39
248.967	-550.87
249.342	-512.66
249.717	-508.11
250.092	-497.2
250.467	-561.23
250.841	-785.51
251.216	-3439.69
251.591	1749.62
251.965	749.52
252.34	563.94
252.714	476.04
253.089	426.37
253.463	404.58
253.838	405.14
254.212	444.43
254.587	502.03
254.961	589.6
255.335	874.49
255.71	21163.64
256.084	-791
256.458	-354.31
256.832	-224.53
257.206	-176.99
257.581	-158.6
257.955	-148.61
258.329	-138.43
258.703	-130.29
259.077	-122.82
259.451	-117.19
259.825	-110.47
260.199	-104.62
260.572	-99.72
260.946	-95.18
261.32	-92.48
261.694	-89.18
262.068	-88.03
262.441	-87.15
262.815	-84.62
263.189	-84.79
263.562	-89.64
263.936	-102.19
264.309	-123.6
264.683	-150
265.056	-168.04
265.43	-172.71
265.803	-169.89
266.176	-163.96
266.55	-164.52
266.923	-157.75
267.296	-150.05
267.67	-139.61
268.043	-130.26
268.416	-120.95
268.789	-111.02
269.162	-99.52
269.535	-92.81
269.908	-87.67
270.281	-84.07
270.654	-84.03
271.027	-86.91
271.4	-89.37
271.773	-90.41
272.146	-89.05
272.519	-85.91
272.891	-83.69
273.264	-83.16
273.637	-83.05
274.01	-83.43
274.382	-80.98
274.755	-79.88
275.127	-79.32
275.5	-80.45
275.872	-81.33
276.245	-81.58
276.617	-83.58
276.99	-88.89
277.362	-92.94
277.734	-93.29
278.107	-92.02
278.479	-86.68
278.851	-81.06
279.223	-76.01
279.596	-72.66
279.968	-70.82
280.34	-71.41
280.712	-68.96
281.084	-64.62
281.456	-58.67
281.828	-53.39
282.2	-49.37
282.572	-46.06
282.944	-44.28
283.315	-42.72
283.687	-41.39
284.059	-40.5
284.431	-39.42
284.802	-38.24
285.174	-36.47
285.546	-35.81
285.917	-35.47
286.289	-35.16
286.66	-34.38
287.032	-34.54
287.403	-34.36
287.775	-34.34
288.146	-33.95
288.518	-33.62
288.889	-33.71
289.26	-34.76
289.632	-35.76
290.003	-37.05
290.374	-38.53
290.745	-38.42
291.116	-38.08
291.487	-37.72
291.858	-37.4
292.229	-36.43
292.6	-34.76
292.971	-33.63
293.342	-31.47
293.713	-29.25
294.084	-27.74
294.455	-26.74
294.826	-25.64
295.196	-25.19
295.567	-24.52
295.938	-23.88
296.308	-23.77
296.679	-22.71
297.05	-21.75
297.42	-21.4
297.791	-20.45
298.161	-19.31
298.532	-18.64
298.902	-18.3
299.272	-17.61
299.643	-16.54
300.013	-16.08
300.383	-15.96
300.754	-15.81
301.124	-16.02
301.494	-16.2
301.864	-16.25
302.234	-16.45
302.604	-16.71
302.974	-16.34
303.344	-15.86
303.714	-15.3
304.084	-14.28
304.454	-14.08
304.824	-13.91
305.194	-13.08
305.563	-12.31
305.933	-11.06
306.303	-10.07
306.673	-9.33
307.042	-8.48
307.412	-7.8
307.781	-6.36
308.151	-4.97
308.521	-4.2
308.89	-3.69
309.259	-3.26
309.629	-2.78
309.998	-2.17
310.368	-1.63
310.737	-1.37
311.106	-1.11
311.475	-0.6
311.845	-0.49
312.214	0.05
312.583	0.6
312.952	0.92
313.321	1.2
313.69	1.43
314.059	1.37
314.428	1.51
314.797	1.45
315.166	1.27
315.535	0.84
315.904	0.24
316.272	0.45
316.641	0.63
317.01	1
317.379	0.9
317.747	0.73
318.116	1.19
318.484	1.91
318.853	2.32
319.221	2.45
319.59	2.96
319.958	2.99
320.327	3.21
320.695	3.57
321.063	4.25
321.432	4.38
321.8	4.95
322.168	5.52
322.536	6.17
322.905	6.75
323.273	7.18
323.641	7.54
324.009	7.49
324.377	7.82
324.745	7.92
325.113	8.32
325.481	8.97
325.849	9.38
326.216	9.64
326.584	10.13
326.952	10.36
327.32	10.74
327.687	11.23
328.055	11.76
328.423	12.24
328.79	12.24
329.158	12.53
329.525	12.8
329.893	13.3
330.26	13.27
330.628	13.51
330.995	13.82
331.362	14.3
331.73	14.92
332.097	15.28
332.464	15.57
332.831	15.84
333.199	16.02
333.566	16.27
333.933	16.27
334.3	16.25
334.667	16.52
335.034	16.71
335.401	16.83
335.768	16.77
336.135	16.6
336.502	16.67
336.868	16.89
337.235	17.11
337.602	17.12
337.969	17.55
338.335	17.86
338.702	18.08
339.069	18.3
339.435	18.34
339.802	18.4
340.168	18.64
340.535	18.9
340.901	18.91
341.267	18.93
341.634	19.27
342	19.55
342.366	19.68
342.733	19.73
343.099	19.87
343.465	20.06
343.831	20.4
344.197	20.64
344.563	20.64
344.929	20.76
345.295	20.98
345.661	21.08
346.027	21.11
346.393	21.13
346.759	21.11
347.125	21.21
347.491	21.27
347.856	21.33
348.222	21.19
348.588	21.28
348.953	21.22
349.319	21.21
349.684	21.25
350.05	21.28
350.415	21.39
350.781	21.49
351.146	21.55
351.512	21.52
351.877	21.61
352.242	21.69
352.608	21.66
352.973	21.56
353.338	21.42
353.703	21.44
354.068	21.44
354.433	21.54
354.798	21.59
355.164	21.68
355.528	21.6
355.893	21.62
356.258	21.63
356.623	21.66
356.988	21.58
357.353	21.57
357.718	21.57
358.082	21.52
358.447	21.38
358.812	21.32
359.176	21.3
359.541	21.17
359.905	21.15
360.27	21.06
360.634	20.97
360.999	21.01
361.363	20.96
361.728	20.79
362.092	20.66
362.456	20.56
362.821	20.41
363.185	20.42
363.549	20.39
363.913	20.35
364.277	20.3
364.641	20.25
365.005	20.21
365.369	20.1
365.733	20.04
366.097	20
366.461	19.87
366.825	19.77
367.189	19.66
367.553	19.53
367.916	19.52
368.28	19.41
368.644	19.36
369.007	19.19
369.371	19.12
369.734	18.98
370.098	18.88
370.461	18.79
370.825	18.68
371.188	18.63
371.552	18.45
371.915	18.3
372.278	18.24
372.642	18.1
373.005	18.06
373.368	17.84
373.731	17.66
374.094	17.6
374.457	17.47
374.82	17.38
375.183	17.24
375.546	17.06
375.909	16.97
376.272	16.8
376.635	16.72
376.998	16.57
377.361	16.45
377.723	16.33
378.086	16.23
378.449	16.1
378.811	15.97
379.174	15.89
379.537	15.79
379.899	15.65
380.262	15.61
380.624	15.5
380.987	15.41
381.349	15.34
381.711	15.19
382.074	15.11
382.436	15.04
382.798	14.9
383.16	14.81
383.522	14.76
383.884	14.68
384.247	14.64
384.609	14.63
384.971	14.56
385.333	14.49
385.695	14.43
386.056	14.34
386.418	14.2
386.78	14.15
387.142	14.12
387.504	14.03
387.865	13.87
388.227	13.77
388.589	13.69
388.95	13.61
389.312	13.52
389.673	13.41
390.035	13.31
390.396	13.24
390.758	13.16
391.119	13.05
391.48	12.93
391.842	12.84
392.203	12.71
392.564	12.65
392.925	12.51
393.286	12.39
393.648	12.31
394.009	12.27
394.37	12.16
394.731	12.02
395.092	11.87
395.452	11.77
395.813	11.66
396.174	11.62
396.535	11.51
396.896	11.45
397.257	11.38
397.617	11.31
397.978	11.23
398.338	11.19
398.699	11.12
399.06	11.08
399.42	10.93
399.781	10.84
400.141	10.73
400.501	10.69
400.862	10.65
401.222	10.59
401.582	10.52
401.943	10.45
402.303	10.43
402.663	10.42
403.023	10.4
403.383	10.36
403.743	10.29
404.103	10.33
404.463	10.33
404.823	10.33
405.183	10.3
405.543	10.3
405.903	10.26
406.262	10.26
406.622	10.24
406.982	10.3
407.342	10.31
407.701	10.32
408.061	10.29
408.42	10.26
408.78	10.26
409.139	10.28
409.499	10.28
409.858	10.29
410.217	10.28
410.577	10.28
410.936	10.26
411.295	10.24
411.655	10.17
412.014	10.09
412.373	10.04
412.732	9.97
413.091	9.9
413.45	9.84
413.809	9.78
414.168	9.66
414.527	9.54
414.886	9.43
415.245	9.35
415.603	9.28
415.962	9.2
416.321	9.11
416.679	8.99
417.038	8.92
417.397	8.82
417.755	8.73
418.114	8.64
418.472	8.57
418.831	8.52
419.189	8.46
419.547	8.41
419.906	8.36
420.264	8.3
420.622	8.25
420.981	8.2
421.339	8.15
421.697	8.12
422.055	8.1
422.413	8.1
422.771	8.09
423.129	8.08
423.487	8.09
423.845	8.09
424.203	8.1
424.56	8.1
424.918	8.12
425.276	8.15
425.634	8.18
425.991	8.18
426.349	8.19
426.707	8.21
427.064	8.23
427.422	8.26
427.779	8.3
428.137	8.34
428.494	8.39
428.851	8.43
429.209	8.45
429.566	8.46
429.923	8.45
430.28	8.44
430.637	8.45
430.995	8.42
431.352	8.41
431.709	8.39
432.066	8.4
432.423	8.39
432.78	8.41
433.137	8.41
433.493	8.42
433.85	8.44
434.207	8.42
434.564	8.39
434.92	8.37
435.277	8.36
435.634	8.35
435.99	8.33
436.347	8.31
436.703	8.3
437.06	8.28
437.416	8.27
437.773	8.25
438.129	8.23
438.485	8.23
438.841	8.22
439.198	8.22
439.554	8.2
439.91	8.19
440.266	8.17
440.622	8.14
440.978	8.12
441.334	8.09
441.69	8.08
442.046	8.04
442.402	8.02
442.758	7.97
443.113	7.93
443.469	7.9
443.825	7.87
444.181	7.85
444.536	7.85
444.892	7.84
445.247	7.82
445.603	7.82
445.958	7.81
446.314	7.79
446.669	7.78
447.025	7.77
447.38	7.76
447.735	7.74
448.09	7.75
448.446	7.75
448.801	7.74
449.156	7.73
449.511	7.76
449.866	7.79
450.221	7.85
450.576	7.88
450.931	7.92
451.286	7.93
451.641	7.95
451.995	7.95
452.35	7.97
452.705	7.99
453.06	8
453.414	8.03
453.769	8.07
454.123	8.07
454.478	8.07
454.832	8.06
455.187	8.05
455.541	8.02
455.896	7.97
456.25	7.93
456.604	7.91
456.958	7.88
457.313	7.83
457.667	7.81
458.021	7.8
458.375	7.78
458.729	7.81
459.083	7.82
459.437	7.84
459.791	7.85
460.145	7.85
460.499	7.87
460.852	7.86
461.206	7.86
461.56	7.89
461.914	7.91
462.267	7.92
462.621	7.95
462.974	7.99
463.328	8.07
463.681	8.15
464.035	8.24
464.388	8.31
464.742	8.4
465.095	8.46
465.448	8.53
465.801	8.57
466.155	8.61
466.508	8.65
466.861	8.69
467.214	8.74
467.567	8.8
467.92	8.82
468.273	8.86
468.626	8.9
468.979	8.93
469.332	8.96
469.684	9
470.037	9.03
470.39	9.07
470.743	9.08
471.095	9.11
471.448	9.12
471.8	9.15
472.153	9.17
472.505	9.17
472.858	9.18
473.21	9.18
473.562	9.18
473.915	9.14
474.267	9.1
474.619	9.07
474.971	9.01
475.324	8.98
475.676	8.95
476.028	8.91
476.38	8.84
476.732	8.79
477.084	8.74
477.436	8.67
477.787	8.59
478.139	8.53
478.491	8.44
478.843	8.37
479.195	8.28
479.546	8.17
479.898	8.01
480.249	7.86
480.601	7.73
480.952	7.66
481.304	7.6
481.655	7.55
482.007	7.51
482.358	7.48
482.709	7.44
483.061	7.41
483.412	7.39
483.763	7.38
484.114	7.36
484.465	7.33
484.816	7.33
485.167	7.32
485.518	7.32
485.869	7.32
486.22	7.32
486.571	7.33
486.922	7.33
487.272	7.36
487.623	7.41
487.974	7.46
488.324	7.49
488.675	7.55
489.025	7.6
489.376	7.64
489.726	7.69
490.077	7.75
490.427	7.82
490.778	7.87
491.128	7.95
491.478	8.05
491.828	8.17
492.179	8.29
492.529	8.43
492.879	8.58
493.229	8.73
493.579	8.88
493.929	9.04
494.279	9.22
494.629	9.43
494.979	9.66
495.328	9.97
495.678	10.33
496.028	10.69
496.378	11.04
496.727	11.43
497.077	11.82
497.426	12.2
497.776	12.57
498.125	12.98
498.475	13.4
498.824	13.82
499.174	14.25
499.523	14.72
499.872	15.23
500.221	15.79
500.571	16.4
500.92	17.04
501.269	17.68
501.618	18.32
501.967	18.98
502.316	19.66
502.665	20.34
503.014	21.02
503.363	21.71
503.711	22.39
504.06	23.07
504.409	23.73
504.758	24.4
505.106	25.08
505.455	25.71
505.803	26.3
506.152	26.87
506.5	27.43
506.849	27.99
507.197	28.51
507.546	29.01
507.894	29.51
508.242	30.01
508.59	30.5
508.939	30.95
509.287	31.38
509.635	31.77
509.983	32.15
510.331	32.52
510.679	32.86
511.027	33.2
511.375	33.55
511.723	33.9
512.07	34.21
512.418	34.53
512.766	34.85
513.114	35.2
513.461	35.54
513.809	35.87
514.156	36.17
514.504	36.47
514.851	36.77
515.199	37.04
515.546	37.31
515.893	37.56
516.241	37.82
516.588	38.05
516.935	38.26
517.282	38.46
517.63	38.64
517.977	38.82
518.324	38.99
518.671	39.14
519.018	39.27
519.365	39.44
519.711	39.57
520.058	39.7
520.405	39.83
520.752	39.97
521.099	40.11
521.445	40.25
521.792	40.41
522.138	40.58
522.485	40.77
522.832	40.97
523.178	41.13
523.524	41.28
523.871	41.44
524.217	41.61
524.563	41.78
524.91	42.01
525.256	42.25
525.602	42.43
525.948	42.53
526.294	42.62
526.64	42.66
526.986	42.72
527.332	42.79
527.678	42.84
528.024	42.88
528.37	42.94
528.716	43
529.061	43.08
529.407	43.15
529.753	43.26
530.098	43.36
530.444	43.43
530.789	43.51
531.135	43.56
531.48	43.63
531.826	43.71
532.171	43.76
532.516	43.81
532.862	43.91
533.207	44.03
533.552	44.14
533.897	44.29
534.242	44.42
534.587	44.53
534.932	44.61
535.277	44.7
535.622	44.76
535.967	44.84
536.312	44.92
536.657	45.04
537.001	45.1
537.346	45.21
537.691	45.35
538.035	45.47
538.38	45.55
538.724	45.63
539.069	45.64
539.413	45.68
539.758	45.7
540.102	45.71
540.446	45.76
540.791	45.79
541.135	45.82
541.479	45.86
541.823	45.89
542.167	45.92
542.512	45.93
542.856	45.98
543.2	46
543.543	46.02
543.887	46.04
544.231	46.07
544.575	46.07
544.919	46.07
545.262	46.08
545.606	46.14
545.95	46.18
546.293	46.24
546.637	46.3
546.98	46.39
547.324	46.46
547.667	46.49
548.011	46.57
548.354	46.61
548.697	46.63
549.04	46.67
549.384	46.72
549.727	46.77
550.07	46.81
550.413	46.86
550.756	46.86
551.099	46.84
551.442	46.9
551.785	46.92
552.128	46.95
552.47	46.95
552.813	46.92
553.156	46.91
553.499	46.94
553.841	46.97
554.184	46.95
554.526	46.96
554.869	46.95
555.211	46.96
555.554	46.94
555.896	46.91
556.238	46.87
556.581	46.86
556.923	46.85
557.265	46.81
557.607	46.8
557.949	46.79
558.291	46.8
558.633	46.75
558.975	46.71
559.317	46.73
559.659	46.68
560.001	46.61
560.343	46.56
560.685	46.56
561.026	46.49
561.368	46.43
561.71	46.36
562.051	46.29
562.393	46.19
562.734	46.1
563.076	46.07
563.417	46.02
563.759	45.94
564.1	45.9
564.441	45.86
564.782	45.78
565.124	45.7
565.465	45.61
565.806	45.56
566.147	45.49
566.488	45.38
566.829	45.34
567.17	45.3
567.511	45.23
567.851	45.13
568.192	45.06
568.533	44.99
568.874	44.95
569.214	44.87
569.555	44.8
569.895	44.72
570.236	44.62
570.576	44.51
570.917	44.41
571.257	44.29
571.598	44.21
571.938	44.13
572.278	44.06
572.618	43.98
572.959	43.88
573.299	43.77
573.639	43.7
573.979	43.58
574.319	43.48
574.659	43.39
574.999	43.28
575.339	43.17
575.678	43.04
576.018	42.87
576.358	42.77
576.698	42.63
577.037	42.53
577.377	42.42
577.716	42.32
578.056	42.23
578.395	42.09
578.735	41.9
579.074	41.78
579.413	41.64
579.753	41.53
580.092	41.41
580.431	41.3
580.77	41.14
581.109	41.03
581.448	40.88
581.787	40.74
582.126	40.6
582.465	40.5
582.804	40.41
583.143	40.34
583.482	40.15
583.82	40.05
584.159	39.92
584.498	39.79
584.836	39.67
585.175	39.55
585.514	39.45
585.852	39.37
586.19	39.21
586.529	39.08
586.867	38.98
587.205	38.86
587.544	38.77
587.882	38.65
588.22	38.55
588.558	38.43
588.896	38.32
589.234	38.24
589.572	38.07
589.91	37.96
590.248	37.81
590.586	37.75
590.924	37.62
591.262	37.47
591.599	37.34
591.937	37.18
592.275	37.05
592.612	36.95
592.95	36.81
593.287	36.67
593.625	36.54
593.962	36.39
594.299	36.26
594.637	36.1
594.974	35.99
595.311	35.89
595.648	35.79
595.985	35.71
596.322	35.58
596.659	35.45
596.996	35.3
597.333	35.19
597.67	35.05
598.007	34.96
598.344	34.88
598.681	34.75
599.017	34.66
599.354	34.51
599.691	34.36
600.027	34.21
600.364	34.09
600.7	33.95
601.037	33.82
601.373	33.61
601.71	33.5
602.046	33.37
602.382	33.2
602.718	33.1
603.054	32.94
603.391	32.82
603.727	32.74
604.063	32.68
604.399	32.57
604.735	32.47
605.071	32.37
605.406	32.27
605.742	32.19
606.078	32.09
606.414	32
606.749	31.92
607.085	31.8
607.421	31.66
607.756	31.52
608.092	31.36
608.427	31.26
608.762	31.09
609.098	30.92
609.433	30.83
609.768	30.66
610.104	30.57
610.439	30.5
610.774	30.4
611.109	30.25
611.444	30.16
611.779	30.02
612.114	29.87
612.449	29.75
612.784	29.58
613.118	29.44
613.453	29.29
613.788	29.08
614.123	28.95
614.457	28.8
614.792	28.65
615.126	28.52
615.461	28.39
615.795	28.29
616.13	28.21
616.464	28.12
616.798	28.07
617.132	27.97
617.467	27.83
617.801	27.73
618.135	27.67
618.469	27.58
618.803	27.48
619.137	27.42
619.471	27.32
619.805	27.25
620.139	27.12
620.472	27.02
620.806	26.94
621.14	26.84
621.473	26.83
621.807	26.69
622.141	26.63
622.474	26.48
622.808	26.4
623.141	26.28
623.474	26.16
623.808	26.05
624.141	25.93
624.474	25.84
624.807	25.77
625.141	25.66
625.474	25.58
625.807	25.5
626.14	25.38
626.473	25.28
626.806	25.21
627.138	25.18
627.471	25.07
627.804	25
628.137	24.96
628.469	24.83
628.802	24.75
629.135	24.57
629.467	24.52
629.8	24.4
630.132	24.3
630.465	24.17
630.797	24.08
631.129	23.96
631.461	23.9
631.794	23.8
632.126	23.73
632.458	23.63
632.79	23.61
633.122	23.55
633.454	23.5
633.786	23.39
634.118	23.25
634.45	23.16
634.781	23.05
635.113	22.95
635.445	22.87
635.777	22.83
636.108	22.85
636.44	22.79
636.771	22.69
637.103	22.64
637.434	22.55
637.765	22.45
638.097	22.4
638.428	22.26
638.759	22.16
639.09	22.09
639.422	22.04
639.753	21.9
640.084	21.83
640.415	21.74
640.746	21.65
641.077	21.59
641.407	21.55
641.738	21.51
642.069	21.46
642.4	21.33
642.73	21.26
643.061	21.19
643.392	21.11
643.722	21.1
644.053	20.97
644.383	20.9
644.713	20.82
645.044	20.71
645.374	20.63
645.704	20.51
646.034	20.45
646.365	20.38
646.695	20.34
647.025	20.28
647.355	20.18
647.685	20.1
648.015	20.04
648.344	20.04
648.674	19.98
649.004	19.91
649.334	19.92
