Data from pcis_c_h1_p3_Reflection_3.txt Node
Date: Wed Jul 12 17:25:44 ART 2017
User: rodoncho
Spectrometer: USB2E3644
Trigger mode: 4
Integration Time (sec): 6.000000E-2
Scans to average: 10
Electric dark correction enabled: true
Nonlinearity correction enabled: false
Boxcar width: 10
XAxis mode: Wavelengths
Number of Pixels in Spectrum: 2048
>>>>>Begin Spectral Data<<<<<
178.315	178.18
178.696	127.59
179.076	127.71
179.457	38.17
179.838	52.24
180.218	18.87
180.599	40.63
180.979	160
181.36	-16.28
181.74	-25.69
182.121	-100
182.501	82.42
182.881	81.37
183.262	76.88
183.642	75.28
184.022	-296.15
184.402	459.46
184.783	192.91
185.163	183.12
185.543	134.89
185.923	112.54
186.303	101.07
186.683	100.96
187.063	101.97
187.443	98.71
187.823	107.45
188.203	113.4
188.583	119.1
188.963	122.19
189.343	118.03
189.723	114.5
190.102	115.87
190.482	110.2
190.862	109.93
191.242	114.08
191.621	118.65
192.001	116.14
192.38	120.29
192.76	115.67
193.14	112.8
193.519	111.75
193.898	113.14
194.278	111.51
194.657	109.03
195.037	109.25
195.416	108.31
195.795	106.03
196.175	104.25
196.554	103.21
196.933	99.55
197.312	98.04
197.692	97.4
198.071	99.36
198.45	102.27
198.829	103.54
199.208	103.33
199.587	103.25
199.966	103.14
200.345	103.87
200.724	104.66
201.103	105.87
201.482	106.15
201.86	105.63
202.239	105
202.618	104.9
202.997	104.56
203.375	105.03
203.754	106.08
204.133	107.6
204.511	108
204.89	110.04
205.269	110.41
205.647	111.47
206.026	109.85
206.404	108.95
206.782	109.04
207.161	109.03
207.539	108.63
207.918	108.79
208.296	106.26
208.674	105.58
209.052	105.95
209.431	107.72
209.809	109.12
210.187	110.29
210.565	110.96
210.943	110.69
211.321	109.75
211.699	109.7
212.077	107.76
212.455	106.35
212.833	105.83
213.211	106.49
213.589	106.97
213.967	107.87
214.345	107.24
214.722	107
215.1	106.32
215.478	105.52
215.855	105.51
216.233	106.36
216.611	107.97
216.988	107.64
217.366	107.67
217.743	107.57
218.121	109.27
218.498	110.61
218.876	110.38
219.253	110.07
219.631	110.11
220.008	110.69
220.385	111.16
220.762	110.27
221.14	110.16
221.517	109.91
221.894	108.79
222.271	109.63
222.648	110.73
223.025	110.65
223.402	111
223.78	111.56
224.157	111.63
224.533	110.72
224.91	110.93
225.287	109.54
225.664	108.69
226.041	106.97
226.418	105.57
226.795	105.07
227.171	104.2
227.548	102.95
227.925	104.4
228.301	105.61
228.678	107.41
229.055	107.23
229.431	107.33
229.808	109.02
230.184	108.48
230.561	107.16
230.937	106.83
231.313	106.73
231.69	105.48
232.066	105.34
232.442	105.48
232.819	106.03
233.195	106.39
233.571	105.58
233.947	105.6
234.323	106.56
234.699	107.74
235.075	108.27
235.451	108.55
235.827	108.24
236.203	108.85
236.579	109.41
236.955	110.37
237.331	111.08
237.707	112.24
238.083	114.5
238.459	119.21
238.834	125.34
239.21	131.8
239.586	138.53
239.961	142.26
240.337	144.19
240.713	144.64
241.088	146.29
241.464	152.62
241.839	160.29
242.215	171.93
242.59	185.72
242.965	216.31
243.341	268.07
243.716	357.93
244.091	510.6
244.467	702.65
244.842	1061.47
245.217	1827.8
245.592	3692.09
245.967	11900
246.343	5265.98
246.718	2927.43
247.093	2209.61
247.468	1881.34
247.843	2547.24
248.218	9260
248.593	-3001.18
248.967	-1222.84
249.342	-990.04
249.717	-971.37
250.092	-1109.45
250.467	-1415.58
250.841	-4274.14
251.216	2183.19
251.591	837.31
251.965	546.35
252.34	456.91
252.714	407.94
253.089	383.12
253.463	350.64
253.838	344.18
254.212	368.23
254.587	401.98
254.961	477.61
255.335	703.45
255.71	2171.98
256.084	-1078.23
256.458	-439.82
256.832	-292.41
257.206	-235.58
257.581	-207.28
257.955	-188.94
258.329	-176.05
258.703	-165.24
259.077	-155.95
259.451	-148.36
259.825	-140.68
260.199	-134.79
260.572	-132.04
260.946	-126.02
261.32	-121.6
261.694	-114.49
262.068	-111.96
262.441	-109.76
262.815	-107.54
263.189	-108.24
263.562	-113.72
263.936	-130.32
264.309	-156.49
264.683	-184.22
265.056	-207.2
265.43	-219.3
265.803	-223.6
266.176	-221.18
266.55	-216.31
266.923	-206.57
267.296	-196.61
267.67	-184.85
268.043	-167.19
268.416	-150.31
268.789	-136.74
269.162	-122.41
269.535	-114.07
269.908	-106.7
270.281	-101.43
270.654	-101.08
271.027	-104.31
271.4	-107.59
271.773	-109.21
272.146	-108.25
272.519	-104.02
272.891	-99.46
273.264	-97.29
273.637	-95.11
274.01	-94.62
274.382	-94.34
274.755	-94.8
275.127	-94.92
275.5	-96.14
275.872	-98.73
276.245	-100.75
276.617	-104.48
276.99	-110.7
277.362	-114.3
277.734	-116.98
278.107	-117.44
278.479	-112.04
278.851	-106.59
279.223	-101.5
279.596	-98.15
279.968	-94.84
280.34	-94.87
280.712	-91.31
281.084	-86.24
281.456	-79.6
281.828	-73.91
282.2	-68.84
282.572	-64.32
282.944	-61.03
283.315	-58.95
283.687	-57.58
284.059	-56.91
284.431	-55.19
284.802	-53.85
285.174	-52.78
285.546	-51.16
285.917	-49.68
286.289	-48.12
286.66	-46.67
287.032	-46.23
287.403	-45.48
287.775	-45.01
288.146	-44.54
288.518	-45.06
288.889	-45.42
289.26	-46.94
289.632	-48.21
290.003	-49.63
290.374	-50.97
290.745	-51.4
291.116	-50.7
291.487	-49.46
291.858	-48.39
292.229	-47.78
292.6	-46.08
292.971	-44.67
293.342	-42.92
293.713	-41.57
294.084	-41.29
294.455	-41.07
294.826	-40.05
295.196	-40
295.567	-39.97
295.938	-39.26
296.308	-39.05
296.679	-38.21
297.05	-37.42
297.42	-36.57
297.791	-35.28
298.161	-34.23
298.532	-33.73
298.902	-33.59
299.272	-33.21
299.643	-32.19
300.013	-31.4
300.383	-30.72
300.754	-30.04
301.124	-30.01
301.494	-29.93
301.864	-29.32
302.234	-29.14
302.604	-29.46
302.974	-28.94
303.344	-28.44
303.714	-28.36
304.084	-27.68
304.454	-27.5
304.824	-26.81
305.194	-26.34
305.563	-25.8
305.933	-24.96
306.303	-23.66
306.673	-22.71
307.042	-21.99
307.412	-21.33
307.781	-20.19
308.151	-19.42
308.521	-19.05
308.89	-18.5
309.259	-17.99
309.629	-17.82
309.998	-17.34
310.368	-17.09
310.737	-16.9
311.106	-16.32
311.475	-15.85
311.845	-15.57
312.214	-15.08
312.583	-14.53
312.952	-13.97
313.321	-13.86
313.69	-13.96
314.059	-14.4
314.428	-14.27
314.797	-14.51
315.166	-15.47
315.535	-16.2
315.904	-16.69
316.272	-16.86
316.641	-17.24
317.01	-17.36
317.379	-17.33
317.747	-17.02
318.116	-16.35
318.484	-16.06
318.853	-15.96
319.221	-15.95
319.59	-15.75
319.958	-15.34
320.327	-15.26
320.695	-14.91
321.063	-14.29
321.432	-13.31
321.8	-12.58
322.168	-11.82
322.536	-11.05
322.905	-9.45
323.273	-8.8
323.641	-8.27
324.009	-8.31
324.377	-7.86
324.745	-7.84
325.113	-7.59
325.481	-7.29
325.849	-7.08
326.216	-6.4
326.584	-5.83
326.952	-5.12
327.32	-4.61
327.687	-4.38
328.055	-4.01
328.423	-3.88
328.79	-3.87
329.158	-3.98
329.525	-3.76
329.893	-3.65
330.26	-3.5
330.628	-3.79
330.995	-3.46
331.362	-3.16
331.73	-2.33
332.097	-1.87
332.464	-1.36
332.831	-0.99
333.199	-0.59
333.566	-0.17
333.933	-0.17
334.3	-0.11
334.667	-0.05
335.034	0.21
335.401	0.48
335.768	0.44
336.135	0.6
336.502	0.87
336.868	1.24
337.235	1.55
337.602	1.93
337.969	2.19
338.335	2.53
338.702	2.82
339.069	2.94
339.435	2.96
339.802	3.15
340.168	3.41
340.535	3.72
340.901	3.91
341.267	4.06
341.634	4.48
342	4.7
342.366	4.9
342.733	4.96
343.099	5.18
343.465	5.61
343.831	5.74
344.197	5.91
344.563	5.92
344.929	6.06
345.295	6.18
345.661	6.31
346.027	6.49
346.393	6.54
346.759	6.58
347.125	6.82
347.491	6.92
347.856	6.99
348.222	6.93
348.588	6.98
348.953	7.1
349.319	7.26
349.684	7.32
350.05	7.42
350.415	7.65
350.781	7.76
351.146	7.77
351.512	8
351.877	8.22
352.242	8.42
352.608	8.52
352.973	8.6
353.338	8.68
353.703	8.83
354.068	8.95
354.433	9.16
354.798	9.29
355.164	9.44
355.528	9.54
355.893	9.71
356.258	9.86
356.623	10.04
356.988	10.18
357.353	10.42
357.718	10.57
358.082	10.65
358.447	10.66
358.812	10.76
359.176	10.88
359.541	10.86
359.905	11
360.27	11.14
360.634	11.24
360.999	11.37
361.363	11.47
361.728	11.53
362.092	11.64
362.456	11.65
362.821	11.77
363.185	11.84
363.549	11.97
363.913	11.99
364.277	11.96
364.641	12.01
365.005	12.09
365.369	12.23
365.733	12.38
366.097	12.58
366.461	12.67
366.825	12.71
367.189	12.85
367.553	12.94
367.916	13
368.28	13.03
368.644	13.2
369.007	13.3
369.371	13.41
369.734	13.45
370.098	13.59
370.461	13.62
370.825	13.69
371.188	13.83
371.552	13.85
371.915	13.96
372.278	13.97
372.642	14.01
373.005	13.97
373.368	13.91
373.731	13.94
374.094	14.01
374.457	14.11
374.82	14.09
375.183	14.06
375.546	14.02
375.909	14.07
376.272	14.02
376.635	13.96
376.998	13.98
377.361	14.02
377.723	14.02
378.086	14.09
378.449	14.18
378.811	14.15
379.174	14.2
379.537	14.19
379.899	14.27
380.262	14.27
380.624	14.31
380.987	14.33
381.349	14.34
381.711	14.32
382.074	14.28
382.436	14.34
382.798	14.44
383.16	14.46
383.522	14.45
383.884	14.51
384.247	14.59
384.609	14.61
384.971	14.63
385.333	14.63
385.695	14.63
386.056	14.6
386.418	14.59
386.78	14.6
387.142	14.57
387.504	14.48
387.865	14.45
388.227	14.46
388.589	14.44
388.95	14.37
389.312	14.33
389.673	14.3
390.035	14.25
390.396	14.17
390.758	14.16
391.119	14.14
391.48	14.09
391.842	14.02
392.203	13.92
392.564	13.88
392.925	13.81
393.286	13.74
393.648	13.67
394.009	13.57
394.37	13.55
394.731	13.48
395.092	13.41
395.452	13.36
395.813	13.3
396.174	13.28
396.535	13.24
396.896	13.22
397.257	13.22
397.617	13.19
397.978	13.16
398.338	13.13
398.699	13.13
399.06	13.04
399.42	12.94
399.781	12.92
400.141	12.81
400.501	12.79
400.862	12.72
401.222	12.66
401.582	12.64
401.943	12.6
402.303	12.6
402.663	12.6
403.023	12.55
403.383	12.51
403.743	12.48
404.103	12.51
404.463	12.51
404.823	12.45
405.183	12.43
405.543	12.39
405.903	12.38
406.262	12.34
406.622	12.36
406.982	12.39
407.342	12.42
407.701	12.46
408.061	12.41
408.42	12.43
408.78	12.42
409.139	12.42
409.499	12.43
409.858	12.43
410.217	12.42
410.577	12.45
410.936	12.42
411.295	12.42
411.655	12.33
412.014	12.28
412.373	12.25
412.732	12.18
413.091	12.09
413.45	11.99
413.809	11.94
414.168	11.82
414.527	11.71
414.886	11.56
415.245	11.44
415.603	11.35
415.962	11.21
416.321	11.12
416.679	10.99
417.038	10.84
417.397	10.69
417.755	10.58
418.114	10.46
418.472	10.38
418.831	10.28
419.189	10.21
419.547	10.11
419.906	10.02
420.264	9.94
420.622	9.86
420.981	9.77
421.339	9.67
421.697	9.62
422.055	9.57
422.413	9.54
422.771	9.5
423.129	9.47
423.487	9.46
423.845	9.44
424.203	9.44
424.56	9.44
424.918	9.45
425.276	9.48
425.634	9.47
425.991	9.48
426.349	9.48
426.707	9.48
427.064	9.5
427.422	9.53
427.779	9.58
428.137	9.64
428.494	9.71
428.851	9.77
429.209	9.82
429.566	9.82
429.923	9.81
430.28	9.82
430.637	9.83
430.995	9.83
431.352	9.85
431.709	9.86
432.066	9.9
432.423	9.91
432.78	9.89
433.137	9.92
433.493	9.93
433.85	9.98
434.207	9.95
434.564	9.95
434.92	9.96
435.277	9.95
435.634	9.95
435.99	9.95
436.347	9.96
436.703	9.96
437.06	10
437.416	10.02
437.773	10.04
438.129	10.04
438.485	10.04
438.841	10.03
439.198	10.02
439.554	10.01
439.91	10
440.266	9.99
440.622	9.97
440.978	9.94
441.334	9.88
441.69	9.84
442.046	9.8
442.402	9.72
442.758	9.63
443.113	9.57
443.469	9.5
443.825	9.46
444.181	9.42
444.536	9.38
444.892	9.33
445.247	9.29
445.603	9.26
445.958	9.23
446.314	9.19
446.669	9.15
447.025	9.11
447.38	9.05
447.735	9.01
448.09	8.97
448.446	8.94
448.801	8.91
449.156	8.89
449.511	8.87
449.866	8.87
450.221	8.91
450.576	8.91
450.931	8.91
451.286	8.87
451.641	8.84
451.995	8.82
452.35	8.84
452.705	8.83
453.06	8.82
453.414	8.84
453.769	8.84
454.123	8.83
454.478	8.84
454.832	8.87
455.187	8.86
455.541	8.86
455.896	8.85
456.25	8.86
456.604	8.87
456.958	8.9
457.313	8.93
457.667	8.94
458.021	9
458.375	9.06
458.729	9.12
459.083	9.18
459.437	9.23
459.791	9.27
460.145	9.33
460.499	9.39
460.852	9.44
461.206	9.51
461.56	9.59
461.914	9.67
462.267	9.76
462.621	9.89
462.974	10.03
463.328	10.2
463.681	10.39
464.035	10.57
464.388	10.76
464.742	10.92
465.095	11.06
465.448	11.2
465.801	11.33
466.155	11.46
466.508	11.56
466.861	11.67
467.214	11.78
467.567	11.88
467.92	11.98
468.273	12.07
468.626	12.14
468.979	12.22
469.332	12.28
469.684	12.34
470.037	12.39
470.39	12.45
470.743	12.5
471.095	12.52
471.448	12.59
471.8	12.62
472.153	12.64
472.505	12.65
472.858	12.65
473.21	12.62
473.562	12.58
473.915	12.54
474.267	12.49
474.619	12.41
474.971	12.33
475.324	12.23
475.676	12.16
476.028	12.06
476.38	11.98
476.732	11.88
477.084	11.77
477.436	11.64
477.787	11.52
478.139	11.39
478.491	11.24
478.843	11.06
479.195	10.88
479.546	10.63
479.898	10.37
480.249	10.11
480.601	9.91
480.952	9.76
481.304	9.67
481.655	9.6
482.007	9.55
482.358	9.5
482.709	9.46
483.061	9.42
483.412	9.39
483.763	9.36
484.114	9.33
484.465	9.31
484.816	9.31
485.167	9.31
485.518	9.32
485.869	9.34
486.22	9.36
486.571	9.4
486.922	9.45
487.272	9.53
487.623	9.62
487.974	9.76
488.324	9.89
488.675	10.01
489.025	10.13
489.376	10.24
489.726	10.35
490.077	10.47
490.427	10.61
490.778	10.76
491.128	10.92
491.478	11.13
491.828	11.38
492.179	11.61
492.529	11.84
492.879	12.07
493.229	12.3
493.579	12.53
493.929	12.74
494.279	12.99
494.629	13.27
494.979	13.61
495.328	13.99
495.678	14.44
496.028	14.88
496.378	15.28
496.727	15.67
497.077	16.04
497.426	16.41
497.776	16.74
498.125	17.07
498.475	17.4
498.824	17.72
499.174	18.01
499.523	18.32
499.872	18.66
500.221	19.03
500.571	19.41
500.92	19.8
501.269	20.18
501.618	20.55
501.967	20.91
502.316	21.25
502.665	21.59
503.014	21.88
503.363	22.2
503.711	22.52
504.06	22.78
504.409	23.04
504.758	23.27
505.106	23.51
505.455	23.75
505.803	23.95
506.152	24.17
506.5	24.4
506.849	24.59
507.197	24.77
507.546	24.95
507.894	25.13
508.242	25.29
508.59	25.42
508.939	25.56
509.287	25.7
509.635	25.83
509.983	25.97
510.331	26.1
510.679	26.19
511.027	26.3
511.375	26.42
511.723	26.57
512.07	26.7
512.418	26.82
512.766	26.91
513.114	27.05
513.461	27.15
513.809	27.22
514.156	27.3
514.504	27.4
514.851	27.46
515.199	27.54
515.546	27.6
515.893	27.72
516.241	27.8
516.588	27.85
516.935	27.9
517.282	27.96
517.63	28
517.977	28.06
518.324	28.09
518.671	28.12
519.018	28.14
519.365	28.19
519.711	28.23
520.058	28.28
520.405	28.3
520.752	28.32
521.099	28.38
521.445	28.44
521.792	28.48
522.138	28.52
522.485	28.58
522.832	28.65
523.178	28.66
523.524	28.74
523.871	28.81
524.217	28.85
524.563	28.86
524.91	28.9
525.256	28.92
525.602	28.95
525.948	28.99
526.294	29.03
526.64	29.03
526.986	29.06
527.332	29.08
527.678	29.1
528.024	29.12
528.37	29.15
528.716	29.15
529.061	29.17
529.407	29.2
529.753	29.2
530.098	29.2
530.444	29.2
530.789	29.2
531.135	29.18
531.48	29.2
531.826	29.23
532.171	29.27
532.516	29.3
532.862	29.33
533.207	29.35
533.552	29.33
533.897	29.34
534.242	29.35
534.587	29.34
534.932	29.37
535.277	29.37
535.622	29.35
535.967	29.38
536.312	29.38
536.657	29.38
537.001	29.39
537.346	29.37
537.691	29.36
538.035	29.3
538.38	29.27
538.724	29.23
539.069	29.19
539.413	29.18
539.758	29.17
540.102	29.14
540.446	29.13
540.791	29.14
541.135	29.13
541.479	29.12
541.823	29.11
542.167	29.08
542.512	29.06
542.856	29.07
543.2	29.04
543.543	29
543.887	29
544.231	29
544.575	29.02
544.919	29.03
545.262	29.07
545.606	29.11
545.95	29.13
546.293	29.16
546.637	29.14
546.98	29.14
547.324	29.15
547.667	29.12
548.011	29.1
548.354	29.1
548.697	29.05
549.04	29.05
549.384	29.04
549.727	29.01
550.07	28.97
550.413	28.99
550.756	28.99
551.099	28.98
551.442	28.95
551.785	28.93
552.128	28.89
552.47	28.86
552.813	28.8
553.156	28.76
553.499	28.71
553.841	28.63
554.184	28.59
554.526	28.58
554.869	28.5
555.211	28.47
555.554	28.41
555.896	28.35
556.238	28.29
556.581	28.25
556.923	28.19
557.265	28.15
557.607	28.07
557.949	28.01
558.291	27.94
558.633	27.89
558.975	27.83
559.317	27.78
559.659	27.73
560.001	27.68
560.343	27.62
560.685	27.58
561.026	27.57
561.368	27.5
561.71	27.39
562.051	27.37
562.393	27.33
562.734	27.3
563.076	27.24
563.417	27.2
563.759	27.14
564.1	27.1
564.441	27.06
564.782	27.01
565.124	26.98
565.465	26.91
565.806	26.83
566.147	26.78
566.488	26.73
566.829	26.63
567.17	26.57
567.511	26.5
567.851	26.43
568.192	26.34
568.533	26.26
568.874	26.22
569.214	26.15
569.555	26.08
569.895	26
570.236	25.97
570.576	25.92
570.917	25.84
571.257	25.75
571.598	25.67
571.938	25.6
572.278	25.52
572.618	25.45
572.959	25.43
573.299	25.33
573.639	25.29
573.979	25.25
574.319	25.17
574.659	25.11
574.999	25.03
575.339	24.98
575.678	24.94
576.018	24.86
576.358	24.79
576.698	24.7
577.037	24.61
577.377	24.5
577.716	24.38
578.056	24.33
578.395	24.27
578.735	24.16
579.074	24.05
579.413	23.96
579.753	23.92
580.092	23.8
580.431	23.74
580.77	23.64
581.109	23.57
581.448	23.5
581.787	23.43
582.126	23.36
582.465	23.29
582.804	23.21
583.143	23.13
583.482	23.03
583.82	22.95
584.159	22.9
584.498	22.86
584.836	22.79
585.175	22.68
585.514	22.59
585.852	22.55
586.19	22.53
586.529	22.45
586.867	22.39
587.205	22.33
587.544	22.28
587.882	22.21
588.22	22.16
588.558	22.09
588.896	22.01
589.234	21.96
589.572	21.88
589.91	21.82
590.248	21.76
590.586	21.72
590.924	21.66
591.262	21.57
591.599	21.46
591.937	21.43
592.275	21.35
592.612	21.28
592.95	21.21
593.287	21.13
593.625	21.09
593.962	21.01
594.299	20.95
594.637	20.87
594.974	20.8
595.311	20.7
595.648	20.66
595.985	20.64
596.322	20.58
596.659	20.55
596.996	20.48
597.333	20.4
597.67	20.33
598.007	20.24
598.344	20.19
598.681	20.14
599.017	20.03
599.354	19.97
599.691	19.89
600.027	19.79
600.364	19.69
600.7	19.57
601.037	19.48
601.373	19.39
601.71	19.3
602.046	19.25
602.382	19.24
602.718	19.19
603.054	19.12
603.391	19.04
603.727	18.97
604.063	18.91
604.399	18.88
604.735	18.84
605.071	18.79
605.406	18.74
605.742	18.68
606.078	18.63
606.414	18.62
606.749	18.57
607.085	18.51
607.421	18.44
607.756	18.36
608.092	18.26
608.427	18.15
608.762	18.1
609.098	17.97
609.433	17.83
609.768	17.74
610.104	17.65
610.439	17.62
610.774	17.54
611.109	17.48
611.444	17.4
611.779	17.32
612.114	17.25
612.449	17.18
612.784	17.12
613.118	17.02
613.453	16.88
613.788	16.75
614.123	16.63
614.457	16.54
614.792	16.45
615.126	16.41
615.461	16.32
615.795	16.18
616.13	16.17
616.464	16.11
616.798	16.07
617.132	16.02
617.467	15.97
617.801	15.9
618.135	15.83
618.469	15.8
618.803	15.72
619.137	15.66
619.471	15.57
619.805	15.52
620.139	15.47
620.472	15.44
620.806	15.4
621.14	15.39
621.473	15.34
621.807	15.29
622.141	15.19
622.474	15.12
622.808	15.06
623.141	14.97
623.474	14.94
623.808	14.9
624.141	14.84
624.474	14.76
624.807	14.74
625.141	14.72
625.474	14.66
625.807	14.66
626.14	14.62
626.473	14.61
626.806	14.57
627.138	14.57
627.471	14.51
627.804	14.48
628.137	14.42
628.469	14.38
628.802	14.33
629.135	14.34
629.467	14.28
629.8	14.25
630.132	14.21
630.465	14.16
630.797	14.06
631.129	14.03
631.461	14.01
631.794	13.98
632.126	13.91
632.458	13.86
632.79	13.81
633.122	13.77
633.454	13.71
633.786	13.66
634.118	13.59
634.45	13.56
634.781	13.5
635.113	13.41
635.445	13.38
635.777	13.36
636.108	13.27
636.44	13.28
636.771	13.25
637.103	13.16
637.434	13.08
637.765	13.03
638.097	12.94
638.428	12.86
638.759	12.79
639.09	12.68
639.422	12.63
639.753	12.58
640.084	12.57
640.415	12.52
640.746	12.44
641.077	12.37
641.407	12.3
641.738	12.24
642.069	12.24
642.4	12.15
642.73	12.07
643.061	12.05
643.392	12.01
643.722	12.01
644.053	11.95
644.383	11.95
644.713	11.88
645.044	11.8
645.374	11.73
645.704	11.66
646.034	11.67
646.365	11.6
