Data from pcis_c_m2_p6_Reflection_1.txt Node
Date: Wed Jul 12 17:36:32 ART 2017
User: rodoncho
Spectrometer: USB2E3644
Trigger mode: 4
Integration Time (sec): 6.000000E-2
Scans to average: 10
Electric dark correction enabled: true
Nonlinearity correction enabled: false
Boxcar width: 10
XAxis mode: Wavelengths
Number of Pixels in Spectrum: 2048
>>>>>Begin Spectral Data<<<<<
178.315	12250
178.696	538.46
179.076	3700
179.457	209.76
179.838	-87.5
180.218	1818.18
180.599	295.65
180.979	1100
181.36	73
181.74	69.75
182.121	-350
182.501	112.46
182.881	131.19
183.262	194.29
183.642	-44.58
184.022	31.65
184.402	69.87
184.783	73.99
185.163	73.58
185.543	84.84
185.923	92.44
186.303	97.7
186.683	95.15
187.063	89.89
187.443	88.49
187.823	79.45
188.203	76.79
188.583	80.04
188.963	85.78
189.343	86.42
189.723	86.19
190.102	87.97
190.482	93.38
190.862	96.57
191.242	95.23
191.621	97.79
192.001	93.81
192.38	89.74
192.76	90.63
193.14	91.36
193.519	92.5
193.898	94.35
194.278	94.76
194.657	93.64
195.037	94.46
195.416	95.42
195.795	96.73
196.175	98.23
196.554	99.66
196.933	99.55
197.312	100.67
197.692	102.22
198.071	102.71
198.45	102.41
198.829	101.31
199.208	100.68
199.587	99.07
199.966	99.72
200.345	99.45
200.724	98.1
201.103	97.74
201.482	98.72
201.86	99.73
202.239	101.27
202.618	103.52
202.997	102.74
203.375	100.88
203.754	98.89
204.133	97.12
204.511	96.36
204.89	96.26
205.269	96.09
205.647	95.59
206.026	94.81
206.404	94.02
206.782	93.93
207.161	95.92
207.539	97.56
207.918	97.84
208.296	98.89
208.674	99.45
209.052	100.7
209.431	99.46
209.809	98.4
210.187	97.27
210.565	96.21
210.943	97.53
211.321	98.15
211.699	99.46
212.077	100.08
212.455	100.3
212.833	99.32
213.211	98.89
213.589	98.46
213.967	98.46
214.345	98.69
214.722	98.49
215.1	97.28
215.478	96.98
215.855	97.89
216.233	98.13
216.611	98.92
216.988	98.43
217.366	98.29
217.743	98.15
218.121	97.25
218.498	97.67
218.876	97.12
219.253	96.42
219.631	96.34
220.008	96.93
220.385	97.03
220.762	97.2
221.14	97.54
221.517	98.03
221.894	99.37
222.271	98.87
222.648	98.63
223.025	98.05
223.402	97.63
223.78	96.66
224.157	95.2
224.533	93.4
224.91	92.95
225.287	93.52
225.664	93.71
226.041	94.6
226.418	94.36
226.795	94.35
227.171	95
227.548	96.1
227.925	97.61
228.301	98.64
228.678	99.46
229.055	98.24
229.431	98.91
229.808	98.44
230.184	98.26
230.561	98.16
230.937	99.28
231.313	99.8
231.69	100.19
232.066	99.94
232.442	100.25
232.819	100.89
233.195	101.14
233.571	102.55
233.947	102.81
234.323	102.03
234.699	102.92
235.075	104.19
235.451	103.22
235.827	102.45
236.203	102.43
236.579	103.99
236.955	105.41
237.331	105.85
237.707	107.59
238.083	110.69
238.459	115.05
238.834	120.15
239.21	125.68
239.586	131.47
239.961	138.23
240.337	142.62
240.713	144.95
241.088	145.84
241.464	146.33
241.839	151.31
242.215	159.18
242.59	168.99
242.965	188.42
243.341	235.54
243.716	309.28
244.091	432.63
244.467	625.51
244.842	1075
245.217	2350
245.592	6686.76
245.967	90700
246.343	10361.36
246.718	3325.55
247.093	2593.64
247.468	2634.73
247.843	2695.73
248.218	-63371.43
248.593	-2423.91
248.967	-1159.54
249.342	-861.95
249.717	-853.88
250.092	-833.27
250.467	-929.11
250.841	-1749.22
251.216	2860.76
251.591	860.88
251.965	555.46
252.34	444.01
252.714	372.03
253.089	330.43
253.463	317.44
253.838	326.17
254.212	342.51
254.587	381.21
254.961	437.13
255.335	610.08
255.71	1869.65
256.084	-1210.49
256.458	-427.34
256.832	-260.69
257.206	-206.1
257.581	-182.4
257.955	-173.64
258.329	-164.66
258.703	-151.53
259.077	-141.96
259.451	-134.53
259.825	-128.38
260.199	-122.06
260.572	-117.7
260.946	-110.84
261.32	-108.19
261.694	-104.76
262.068	-101.57
262.441	-98.51
262.815	-96.84
263.189	-96.65
263.562	-102.71
263.936	-118.47
264.309	-142.91
264.683	-175.5
265.056	-199.17
265.43	-203.77
265.803	-197.44
266.176	-189.38
266.55	-193.73
266.923	-188.99
267.296	-178.79
267.67	-167.96
268.043	-153.45
268.416	-138.58
268.789	-122.88
269.162	-107.13
269.535	-97.32
269.908	-92.89
270.281	-90.24
270.654	-90.82
271.027	-94.94
271.4	-98.65
271.773	-99.95
272.146	-99.2
272.519	-94.7
272.891	-92.3
273.264	-91.96
273.637	-90.85
274.01	-91.76
274.382	-90.88
274.755	-88.98
275.127	-88.8
275.5	-88.65
275.872	-88.92
276.245	-88.1
276.617	-91.68
276.99	-97.69
277.362	-102.29
277.734	-104.1
278.107	-103.68
278.479	-97.9
278.851	-91.73
279.223	-85.46
279.596	-81.95
279.968	-80.2
280.34	-80.56
280.712	-78.48
281.084	-73.56
281.456	-66.84
281.828	-61.44
282.2	-56.7
282.572	-53.61
282.944	-51.08
283.315	-49.75
283.687	-49.04
284.059	-48.78
284.431	-47.96
284.802	-47.38
285.174	-45.69
285.546	-44.14
285.917	-43.66
286.289	-42.47
286.66	-41.3
287.032	-40.89
287.403	-40.42
287.775	-39.83
288.146	-39.15
288.518	-38.51
288.889	-38.43
289.26	-39.95
289.632	-40.8
290.003	-41.85
290.374	-42.78
290.745	-43.03
291.116	-43.07
291.487	-41.89
291.858	-41.18
292.229	-40.71
292.6	-39.28
292.971	-38.53
293.342	-37.37
293.713	-34.76
294.084	-33.64
294.455	-33.21
294.826	-32.66
295.196	-32.66
295.567	-32.62
295.938	-32.3
296.308	-32.26
296.679	-31.54
297.05	-30.9
297.42	-30.52
297.791	-29.67
298.161	-28.73
298.532	-28.38
298.902	-27.68
299.272	-27.19
299.643	-26.36
300.013	-25.46
300.383	-25.1
300.754	-24.88
301.124	-24.85
301.494	-25.26
301.864	-25.61
302.234	-25.65
302.604	-25.85
302.974	-25.61
303.344	-25.29
303.714	-25
304.084	-24.42
304.454	-24.37
304.824	-23.62
305.194	-22.91
305.563	-22.21
305.933	-21.15
306.303	-19.88
306.673	-19.28
307.042	-18.77
307.412	-17.95
307.781	-16.8
308.151	-15.87
308.521	-15.23
308.89	-14.79
309.259	-14.28
309.629	-13.7
309.998	-13.37
310.368	-13.03
310.737	-12.78
311.106	-12.49
311.475	-12.28
311.845	-12.18
312.214	-11.68
312.583	-11.51
312.952	-11.15
313.321	-11.1
313.69	-11.17
314.059	-11.47
314.428	-11.4
314.797	-11.78
315.166	-12.6
315.535	-13.46
315.904	-14.08
316.272	-14.2
316.641	-14.3
317.01	-14.38
317.379	-14.52
317.747	-14.44
318.116	-14.08
318.484	-13.62
318.853	-13.09
319.221	-12.49
319.59	-11.98
319.958	-11.81
320.327	-11.44
320.695	-11.31
321.063	-10.84
321.432	-10.33
321.8	-9.54
322.168	-8.67
322.536	-7.92
322.905	-6.94
323.273	-6.2
323.641	-5.68
324.009	-5.91
324.377	-5.68
324.745	-5.19
325.113	-4.8
325.481	-4.61
325.849	-4.24
326.216	-3.89
326.584	-3.57
326.952	-3.48
327.32	-3.15
327.687	-2.63
328.055	-2.31
328.423	-2.1
328.79	-2.01
329.158	-2.16
329.525	-2.18
329.893	-2.07
330.26	-1.83
330.628	-1.81
330.995	-1.57
331.362	-1.38
331.73	-0.79
332.097	-0.48
332.464	-0.53
332.831	-0.49
333.199	-0.13
333.566	0.14
333.933	0.18
334.3	0.22
334.667	0.52
335.034	0.61
335.401	0.57
335.768	0.53
336.135	0.82
336.502	0.96
336.868	1.43
337.235	1.76
337.602	2.09
337.969	2.34
338.335	2.66
338.702	2.79
339.069	2.97
339.435	3.23
339.802	3.42
340.168	3.68
340.535	3.92
340.901	3.94
341.267	4.02
341.634	4.22
342	4.51
342.366	4.62
342.733	4.73
343.099	4.94
343.465	5.26
343.831	5.43
344.197	5.64
344.563	5.71
344.929	5.8
345.295	5.85
345.661	6.07
346.027	6.24
346.393	6.41
346.759	6.58
347.125	6.58
347.491	6.72
347.856	6.93
348.222	7.09
348.588	7.27
348.953	7.42
349.319	7.67
349.684	7.76
350.05	7.95
350.415	8.18
350.781	8.36
351.146	8.45
351.512	8.48
351.877	8.66
352.242	8.74
352.608	8.8
352.973	8.82
353.338	8.82
353.703	8.92
354.068	9.05
354.433	9.21
354.798	9.45
355.164	9.58
355.528	9.65
355.893	9.76
356.258	9.91
356.623	9.98
356.988	10.02
357.353	10.04
357.718	10.14
358.082	10.24
358.447	10.2
358.812	10.26
359.176	10.32
359.541	10.35
359.905	10.48
360.27	10.64
360.634	10.8
360.999	10.82
361.363	10.9
361.728	10.92
362.092	10.94
362.456	10.92
362.821	10.99
363.185	11.02
363.549	11.13
363.913	11.14
364.277	11.21
364.641	11.31
365.005	11.45
365.369	11.5
365.733	11.58
366.097	11.7
366.461	11.76
366.825	11.86
367.189	11.98
367.553	12.03
367.916	12.04
368.28	12
368.644	12.18
369.007	12.19
369.371	12.28
369.734	12.37
370.098	12.47
370.461	12.54
370.825	12.63
371.188	12.73
371.552	12.87
371.915	12.97
372.278	13.05
372.642	13.11
373.005	13.2
373.368	13.21
373.731	13.29
374.094	13.33
374.457	13.43
374.82	13.46
375.183	13.52
375.546	13.6
375.909	13.7
376.272	13.69
376.635	13.69
376.998	13.71
377.361	13.77
377.723	13.83
378.086	13.88
378.449	13.92
378.811	13.96
379.174	13.96
379.537	14
379.899	14.06
380.262	14.12
380.624	14.1
380.987	14.19
381.349	14.2
381.711	14.29
382.074	14.3
382.436	14.38
382.798	14.33
383.16	14.33
383.522	14.32
383.884	14.37
384.247	14.47
384.609	14.55
384.971	14.53
385.333	14.56
385.695	14.61
386.056	14.63
386.418	14.58
386.78	14.62
387.142	14.66
387.504	14.62
387.865	14.6
388.227	14.61
388.589	14.54
388.95	14.53
389.312	14.48
389.673	14.45
390.035	14.4
390.396	14.43
390.758	14.41
391.119	14.42
391.48	14.38
391.842	14.39
392.203	14.35
392.564	14.34
392.925	14.32
393.286	14.29
393.648	14.28
394.009	14.28
394.37	14.24
394.731	14.18
395.092	14.16
395.452	14.13
395.813	14.13
396.174	14.16
396.535	14.16
396.896	14.16
397.257	14.15
397.617	14.17
397.978	14.14
398.338	14.2
398.699	14.16
399.06	14.15
399.42	14.07
399.781	14.02
400.141	13.96
400.501	13.91
400.862	13.86
401.222	13.81
401.582	13.77
401.943	13.75
402.303	13.72
402.663	13.67
403.023	13.64
403.383	13.58
403.743	13.53
404.103	13.48
404.463	13.46
404.823	13.46
405.183	13.37
405.543	13.37
405.903	13.26
406.262	13.22
406.622	13.19
406.982	13.16
407.342	13.15
407.701	13.14
408.061	13.11
408.42	13.08
408.78	13.05
409.139	13.04
409.499	13
409.858	12.98
410.217	12.97
410.577	12.96
410.936	12.92
411.295	12.9
411.655	12.87
412.014	12.83
412.373	12.75
412.732	12.71
413.091	12.64
413.45	12.59
413.809	12.55
414.168	12.47
414.527	12.38
414.886	12.27
415.245	12.2
415.603	12.1
415.962	11.99
416.321	11.9
416.679	11.78
417.038	11.67
417.397	11.54
417.755	11.43
418.114	11.34
418.472	11.26
418.831	11.18
419.189	11.11
419.547	11.02
419.906	10.96
420.264	10.87
420.622	10.81
420.981	10.74
421.339	10.68
421.697	10.61
422.055	10.58
422.413	10.53
422.771	10.49
423.129	10.45
423.487	10.43
423.845	10.41
424.203	10.4
424.56	10.39
424.918	10.39
425.276	10.39
425.634	10.38
425.991	10.37
426.349	10.37
426.707	10.36
427.064	10.36
427.422	10.36
427.779	10.37
428.137	10.36
428.494	10.38
428.851	10.37
429.209	10.37
429.566	10.33
429.923	10.31
430.28	10.26
430.637	10.25
430.995	10.21
431.352	10.17
431.709	10.12
432.066	10.11
432.423	10.08
432.78	10.05
433.137	10.04
433.493	10.02
433.85	10.01
434.207	9.94
434.564	9.91
434.92	9.85
435.277	9.82
435.634	9.78
435.99	9.73
436.347	9.69
436.703	9.64
437.06	9.59
437.416	9.55
437.773	9.54
438.129	9.51
438.485	9.5
438.841	9.48
439.198	9.46
439.554	9.42
439.91	9.41
440.266	9.39
440.622	9.36
440.978	9.31
441.334	9.26
441.69	9.23
442.046	9.2
442.402	9.16
442.758	9.09
443.113	9.04
443.469	9
443.825	8.96
444.181	8.93
444.536	8.92
444.892	8.9
445.247	8.88
445.603	8.87
445.958	8.84
446.314	8.83
446.669	8.81
447.025	8.79
447.38	8.76
447.735	8.74
448.09	8.73
448.446	8.74
448.801	8.72
449.156	8.71
449.511	8.7
449.866	8.7
450.221	8.74
450.576	8.77
450.931	8.77
451.286	8.77
451.641	8.78
451.995	8.78
452.35	8.77
452.705	8.77
453.06	8.75
453.414	8.74
453.769	8.72
454.123	8.69
454.478	8.7
454.832	8.67
455.187	8.63
455.541	8.58
455.896	8.53
456.25	8.48
456.604	8.45
456.958	8.41
457.313	8.37
457.667	8.35
458.021	8.32
458.375	8.31
458.729	8.32
459.083	8.32
459.437	8.33
459.791	8.33
460.145	8.32
460.499	8.33
460.852	8.34
461.206	8.33
461.56	8.33
461.914	8.33
462.267	8.35
462.621	8.36
462.974	8.39
463.328	8.41
463.681	8.46
464.035	8.49
464.388	8.52
464.742	8.55
465.095	8.55
465.448	8.56
465.801	8.56
466.155	8.57
466.508	8.56
466.861	8.54
467.214	8.53
467.567	8.51
467.92	8.49
468.273	8.47
468.626	8.46
468.979	8.48
469.332	8.45
469.684	8.44
470.037	8.44
470.39	8.41
470.743	8.4
471.095	8.41
471.448	8.42
471.8	8.42
472.153	8.42
472.505	8.44
472.858	8.45
473.21	8.42
473.562	8.4
473.915	8.4
474.267	8.39
474.619	8.39
474.971	8.39
475.324	8.39
475.676	8.38
476.028	8.39
476.38	8.38
476.732	8.39
477.084	8.38
477.436	8.36
477.787	8.34
478.139	8.31
478.491	8.26
478.843	8.23
479.195	8.19
479.546	8.11
479.898	8
480.249	7.92
480.601	7.86
480.952	7.8
481.304	7.76
481.655	7.74
482.007	7.71
482.358	7.69
482.709	7.67
483.061	7.66
483.412	7.64
483.763	7.62
484.114	7.6
484.465	7.59
484.816	7.57
485.167	7.55
485.518	7.54
485.869	7.55
486.22	7.55
486.571	7.56
486.922	7.57
487.272	7.59
487.623	7.6
487.974	7.61
488.324	7.64
488.675	7.64
489.025	7.65
489.376	7.67
489.726	7.69
490.077	7.72
490.427	7.74
490.778	7.76
491.128	7.78
491.478	7.83
491.828	7.87
492.179	7.92
492.529	7.98
492.879	8.02
493.229	8.04
493.579	8.05
493.929	8.06
494.279	8.07
494.629	8.09
494.979	8.13
495.328	8.18
495.678	8.24
496.028	8.3
496.378	8.33
496.727	8.37
497.077	8.39
497.426	8.4
497.776	8.4
498.125	8.4
498.475	8.42
498.824	8.42
499.174	8.41
499.523	8.4
499.872	8.39
500.221	8.4
500.571	8.41
500.92	8.44
501.269	8.46
501.618	8.48
501.967	8.49
502.316	8.48
502.665	8.48
503.014	8.5
503.363	8.53
503.711	8.54
504.06	8.54
504.409	8.54
504.758	8.53
505.106	8.55
505.455	8.58
505.803	8.59
506.152	8.59
506.5	8.6
506.849	8.61
507.197	8.62
507.546	8.63
507.894	8.64
508.242	8.66
508.59	8.67
508.939	8.68
509.287	8.69
509.635	8.72
509.983	8.74
510.331	8.75
510.679	8.77
511.027	8.78
511.375	8.79
511.723	8.82
512.07	8.84
512.418	8.87
512.766	8.9
513.114	8.93
513.461	8.98
513.809	9.03
514.156	9.06
514.504	9.09
514.851	9.1
515.199	9.09
515.546	9.1
515.893	9.11
516.241	9.11
516.588	9.12
516.935	9.12
517.282	9.16
517.63	9.15
517.977	9.16
518.324	9.18
518.671	9.19
519.018	9.22
519.365	9.24
519.711	9.26
520.058	9.24
520.405	9.23
520.752	9.23
521.099	9.22
521.445	9.24
521.792	9.24
522.138	9.25
522.485	9.3
522.832	9.32
523.178	9.34
523.524	9.39
523.871	9.42
524.217	9.43
524.563	9.41
524.91	9.41
525.256	9.38
525.602	9.36
525.948	9.33
526.294	9.31
526.64	9.29
526.986	9.29
527.332	9.32
527.678	9.33
528.024	9.34
528.37	9.36
528.716	9.36
529.061	9.37
529.407	9.38
529.753	9.38
530.098	9.38
530.444	9.4
530.789	9.4
531.135	9.41
531.48	9.43
531.826	9.47
532.171	9.5
532.516	9.55
532.862	9.6
533.207	9.68
533.552	9.73
533.897	9.78
534.242	9.82
534.587	9.84
534.932	9.86
535.277	9.89
535.622	9.91
535.967	9.93
536.312	9.97
536.657	10.03
537.001	10.08
537.346	10.15
537.691	10.18
538.035	10.19
538.38	10.23
538.724	10.24
539.069	10.26
539.413	10.29
539.758	10.32
540.102	10.34
540.446	10.36
540.791	10.39
541.135	10.41
541.479	10.44
541.823	10.47
542.167	10.49
542.512	10.52
542.856	10.54
543.2	10.57
543.543	10.59
543.887	10.61
544.231	10.65
544.575	10.68
544.919	10.73
545.262	10.83
545.606	10.9
545.95	10.97
546.293	11.02
546.637	11.08
546.98	11.13
547.324	11.21
547.667	11.29
548.011	11.34
548.354	11.39
548.697	11.45
549.04	11.53
549.384	11.61
549.727	11.69
550.07	11.76
550.413	11.83
550.756	11.91
551.099	12
551.442	12.07
551.785	12.15
552.128	12.22
552.47	12.28
552.813	12.34
553.156	12.42
553.499	12.5
553.841	12.57
554.184	12.64
554.526	12.7
554.869	12.76
555.211	12.86
555.554	12.95
555.896	13.05
556.238	13.13
556.581	13.22
556.923	13.31
557.265	13.43
557.607	13.54
557.949	13.66
558.291	13.78
558.633	13.88
558.975	13.97
559.317	14.1
559.659	14.21
560.001	14.32
560.343	14.42
560.685	14.52
561.026	14.61
561.368	14.71
561.71	14.82
562.051	14.95
562.393	15.1
562.734	15.25
563.076	15.36
563.417	15.52
563.759	15.64
564.1	15.78
564.441	15.91
564.782	16.04
565.124	16.17
565.465	16.3
565.806	16.44
566.147	16.61
566.488	16.72
566.829	16.86
567.17	17
567.511	17.15
567.851	17.33
568.192	17.46
568.533	17.67
568.874	17.85
569.214	18.02
569.555	18.17
569.895	18.35
570.236	18.52
570.576	18.7
570.917	18.88
571.257	19.04
571.598	19.23
571.938	19.42
572.278	19.6
572.618	19.75
572.959	19.93
573.299	20.08
573.639	20.27
573.979	20.44
574.319	20.62
574.659	20.8
574.999	20.98
575.339	21.2
575.678	21.36
576.018	21.55
576.358	21.74
576.698	21.92
577.037	22.11
577.377	22.33
577.716	22.5
578.056	22.72
578.395	22.96
578.735	23.19
579.074	23.4
579.413	23.59
579.753	23.86
580.092	24.08
580.431	24.31
580.77	24.51
581.109	24.74
581.448	24.93
581.787	25.17
582.126	25.35
582.465	25.57
582.804	25.79
583.143	26.02
583.482	26.22
583.82	26.44
584.159	26.66
584.498	26.83
584.836	27.07
585.175	27.32
585.514	27.55
585.852	27.78
586.19	28
586.529	28.26
586.867	28.5
587.205	28.73
587.544	28.96
587.882	29.19
588.22	29.36
588.558	29.59
588.896	29.81
589.234	30.03
589.572	30.25
589.91	30.48
590.248	30.66
590.586	30.87
590.924	31.09
591.262	31.29
591.599	31.52
591.937	31.73
592.275	31.88
592.612	32.01
592.95	32.18
593.287	32.42
593.625	32.66
593.962	32.86
594.299	33.08
594.637	33.3
594.974	33.47
595.311	33.66
595.648	33.81
595.985	33.93
596.322	34.06
596.659	34.2
596.996	34.32
597.333	34.48
597.67	34.59
598.007	34.71
598.344	34.83
598.681	34.96
599.017	35.07
599.354	35.23
599.691	35.38
600.027	35.55
600.364	35.68
600.7	35.87
601.037	36.05
601.373	36.24
601.71	36.4
602.046	36.53
602.382	36.64
602.718	36.76
603.054	36.91
603.391	37.02
603.727	37.06
604.063	37.13
604.399	37.21
604.735	37.35
605.071	37.48
605.406	37.61
605.742	37.74
606.078	37.85
606.414	37.99
606.749	38.14
607.085	38.23
607.421	38.33
607.756	38.4
608.092	38.47
608.427	38.52
608.762	38.62
609.098	38.74
609.433	38.84
609.768	38.89
610.104	38.96
610.439	39.02
610.774	39.14
611.109	39.22
611.444	39.32
611.779	39.4
612.114	39.44
612.449	39.46
612.784	39.51
613.118	39.57
613.453	39.56
613.788	39.57
614.123	39.63
614.457	39.7
614.792	39.76
615.126	39.83
615.461	39.88
615.795	39.89
616.13	39.93
616.464	39.97
616.798	40.1
617.132	40.14
617.467	40.26
617.801	40.3
618.135	40.37
618.469	40.4
618.803	40.45
619.137	40.55
619.471	40.59
619.805	40.63
620.139	40.66
620.472	40.77
620.806	40.86
621.14	40.89
621.473	40.9
621.807	40.92
622.141	40.91
622.474	40.93
622.808	40.95
623.141	41.06
623.474	41.13
623.808	41.15
624.141	41.19
624.474	41.17
624.807	41.24
625.141	41.28
625.474	41.33
625.807	41.32
626.14	41.32
626.473	41.33
626.806	41.37
627.138	41.46
627.471	41.46
627.804	41.48
628.137	41.56
628.469	41.63
628.802	41.66
629.135	41.71
629.467	41.73
629.8	41.78
630.132	41.75
630.465	41.76
630.797	41.77
631.129	41.83
631.461	41.9
631.794	41.92
632.126	41.94
632.458	41.97
632.79	41.98
633.122	42.04
633.454	42.15
633.786	42.2
634.118	42.14
634.45	42.17
634.781	42.19
635.113	42.2
635.445	42.18
635.777	42.16
636.108	42.21
636.44	42.3
636.771	42.29
637.103	42.32
637.434	42.32
637.765	42.34
638.097	42.29
638.428	42.29
638.759	42.28
639.09	42.23
639.422	42.22
639.753	42.2
640.084	42.23
640.415	42.19
640.746	42.2
641.077	42.22
641.407	42.22
641.738	42.22
642.069	42.23
642.4	42.19
642.73	42.24
643.061	42.28
643.392	42.27
643.722	42.36
644.053	42.34
644.383	42.45
644.713	42.51
645.044	42.51
645.374	42.54
645.704	42.59
646.034	42.69
646.365	42.75
646.695	42.81
647.025	42.79
647.355	42.84
647.685	42.84
648.015	42.89
648.344	42.97
648.674	42.99
649.004	43.03
649.334	43.06
649.663	43.07
649.993	43.09
650.323	43.1
650.652	43.05
650.982	43.06
651.311	43.04
651.64	43.01
651.97	43.08
652.299	43.1
652.628	43.09
