Data from pcis_p_h3_p2_Reflection_3.txt Node
Date: Wed Jul 12 17:52:23 ART 2017
User: rodoncho
Spectrometer: USB2E3644
Trigger mode: 4
Integration Time (sec): 6.000000E-2
Scans to average: 10
Electric dark correction enabled: true
Nonlinearity correction enabled: false
Boxcar width: 10
XAxis mode: Wavelengths
Number of Pixels in Spectrum: 2048
>>>>>Begin Spectral Data<<<<<
178.315	14.86
178.696	44.72
179.076	40.65
179.457	72.04
179.838	28.33
180.218	-68.84
180.599	-85.09
180.979	50
181.36	41.03
181.74	33.33
182.121	66.67
182.501	110.76
182.881	125.49
183.262	135.24
183.642	1933.33
184.022	-15.15
184.402	25.44
184.783	59.86
185.163	81.29
185.543	81.32
185.923	76.91
186.303	80.25
186.683	91.67
187.063	108.46
187.443	121.72
187.823	116.82
188.203	116.26
188.583	121.55
188.963	132.25
189.343	129.61
189.723	133.13
190.102	132.07
190.482	130.29
190.862	128.3
191.242	125.54
191.621	127.44
192.001	134.19
192.38	135.46
192.76	137.42
193.14	132.23
193.519	134.47
193.898	136.28
194.278	133.76
194.657	131.43
195.037	130.43
195.416	130.27
195.795	130.98
196.175	129.11
196.554	127.79
196.933	126.51
197.312	124.7
197.692	123.36
198.071	121.67
198.45	122.69
198.829	125.98
199.208	127.23
199.587	125.08
199.966	122.4
200.345	120.47
200.724	119.53
201.103	120.55
201.482	119.19
201.86	118.66
202.239	120.59
202.618	120.91
202.997	119.33
203.375	118.8
203.754	118.11
204.133	116.05
204.511	113.84
204.89	113.66
205.269	113.93
205.647	116.21
206.026	116.28
206.404	114.35
206.782	110.84
207.161	110.67
207.539	111.31
207.918	111.67
208.296	112.11
208.674	112.15
209.052	111.94
209.431	113.26
209.809	114.75
210.187	114.55
210.565	114.2
210.943	114.72
211.321	113.5
211.699	113.37
212.077	114.64
212.455	116.21
212.833	116.49
213.211	117.93
213.589	116.19
213.967	117.75
214.345	119.15
214.722	119.72
215.1	118.31
215.478	117.57
215.855	118.52
216.233	118.92
216.611	118.45
216.988	119.8
217.366	118.97
217.743	116.88
218.121	116.12
218.498	115.31
218.876	115.04
219.253	115.68
219.631	113.95
220.008	114.17
220.385	113.79
220.762	113.98
221.14	113.18
221.517	111.97
221.894	111.26
222.271	110.48
222.648	109.27
223.025	109.45
223.402	110.33
223.78	111.07
224.157	112.14
224.533	112.85
224.91	111.9
225.287	112.46
225.664	112.62
226.041	111.78
226.418	111.2
226.795	110.11
227.171	109.65
227.548	111.11
227.925	112.5
228.301	114.21
228.678	114.36
229.055	113.36
229.431	113.59
229.808	114.51
230.184	115.04
230.561	117.33
230.937	117.97
231.313	117.21
231.69	116.27
232.066	115.56
232.442	115.9
232.819	115.85
233.195	115.47
233.571	116.85
233.947	118.75
234.323	120.31
234.699	121.42
235.075	122.12
235.451	122.84
235.827	121.26
236.203	121.78
236.579	122.98
236.955	124.68
237.331	126.83
237.707	128.89
238.083	131.93
238.459	136.97
238.834	143.5
239.21	149.29
239.586	154.12
239.961	158.54
240.337	160.72
240.713	163.27
241.088	166.6
241.464	168.87
241.839	173.29
242.215	179.22
242.59	190.02
242.965	211.58
243.341	252.82
243.716	316.86
244.091	393.95
244.467	512.02
244.842	727.07
245.217	1071.79
245.592	1325.8
245.967	1563.57
246.343	1349.7
246.718	1225.54
247.093	1302.3
247.468	1502.64
247.843	1912.24
248.218	4104.5
248.593	-4370.48
248.967	-1491.83
249.342	-1075.12
249.717	-1159.9
250.092	-1219.58
250.467	-1550.67
250.841	-4128.07
251.216	2347.26
251.591	981.89
251.965	645.87
252.34	499.9
252.714	440.77
253.089	412.08
253.463	409.25
253.838	423.58
254.212	448.84
254.587	475.19
254.961	557.56
255.335	810.13
255.71	3643.7
256.084	-967.06
256.458	-415.14
256.832	-270.6
257.206	-222.62
257.581	-197.03
257.955	-183.57
258.329	-173.1
258.703	-161.09
259.077	-152.9
259.451	-146.14
259.825	-137.03
260.199	-131.89
260.572	-129.17
260.946	-124.99
261.32	-122.35
261.694	-119.2
262.068	-117.62
262.441	-114.88
262.815	-114.25
263.189	-115.14
263.562	-122.24
263.936	-140.65
264.309	-171.95
264.683	-212.05
265.056	-242.06
265.43	-253.47
265.803	-250.42
266.176	-237.66
266.55	-230.51
266.923	-222.92
267.296	-216.73
267.67	-202.37
268.043	-181.94
268.416	-164.45
268.789	-147.72
269.162	-129.76
269.535	-119.68
269.908	-112.88
270.281	-108.54
270.654	-107.92
271.027	-110.41
271.4	-111.13
271.773	-111.05
272.146	-110.17
272.519	-106.41
272.891	-102.91
273.264	-101.66
273.637	-102.4
274.01	-104.54
274.382	-104.74
274.755	-102.27
275.127	-100.71
275.5	-102.36
275.872	-101.26
276.245	-100.46
276.617	-103.24
276.99	-110.59
277.362	-114.56
277.734	-115.76
278.107	-115.74
278.479	-110.89
278.851	-105.83
279.223	-101.42
279.596	-98.98
279.968	-97.07
280.34	-98.12
280.712	-96.27
281.084	-90.66
281.456	-82.68
281.828	-75.65
282.2	-69.62
282.572	-64.69
282.944	-61.81
283.315	-60.07
283.687	-60.45
284.059	-60.68
284.431	-59.91
284.802	-58.3
285.174	-56.93
285.546	-55.68
285.917	-54.87
286.289	-53.96
286.66	-52.92
287.032	-53.09
287.403	-52.41
287.775	-51.9
288.146	-50.93
288.518	-50.55
288.889	-50.78
289.26	-51.99
289.632	-53.4
290.003	-54.97
290.374	-57.55
290.745	-58.73
291.116	-58.46
291.487	-56.61
291.858	-55.27
292.229	-54
292.6	-52.39
292.971	-50.44
293.342	-47.88
293.713	-45.41
294.084	-43.7
294.455	-42.99
294.826	-41.65
295.196	-41.43
295.567	-41.13
295.938	-40.66
296.308	-40.31
296.679	-39.64
297.05	-39.13
297.42	-38.47
297.791	-37.27
298.161	-36.01
298.532	-34.93
298.902	-34.45
299.272	-34.15
299.643	-33.51
300.013	-32.78
300.383	-32.01
300.754	-31.47
301.124	-31.89
301.494	-31.81
301.864	-31.58
302.234	-31.38
302.604	-31.5
302.974	-30.92
303.344	-30.38
303.714	-30.78
304.084	-30.33
304.454	-30
304.824	-28.96
305.194	-27.92
305.563	-27.71
305.933	-26.7
306.303	-25.34
306.673	-24.31
307.042	-23.37
307.412	-22.31
307.781	-21.35
308.151	-20.49
308.521	-20.26
308.89	-19.41
309.259	-19.25
309.629	-18.97
309.998	-18.42
310.368	-17.98
310.737	-17.84
311.106	-17.6
311.475	-16.58
311.845	-16.23
312.214	-15.74
312.583	-15.15
312.952	-14.75
313.321	-14.51
313.69	-14.56
314.059	-14.83
314.428	-15.16
314.797	-15.52
315.166	-16.17
315.535	-16.67
315.904	-16.97
316.272	-17.17
316.641	-17.51
317.01	-17.48
317.379	-17.86
317.747	-18.04
318.116	-17.63
318.484	-17.23
318.853	-16.63
319.221	-16.45
319.59	-16.03
319.958	-16.07
320.327	-16.1
320.695	-15.97
321.063	-15.23
321.432	-14.66
321.8	-14.39
322.168	-13.27
322.536	-12.17
322.905	-11.14
323.273	-10.43
323.641	-10.06
324.009	-9.67
324.377	-9.27
324.745	-8.72
325.113	-8.32
325.481	-7.83
325.849	-7.54
326.216	-7.06
326.584	-6.5
326.952	-6.22
327.32	-5.88
327.687	-5.26
328.055	-5
328.423	-4.78
328.79	-4.75
329.158	-4.67
329.525	-4.19
329.893	-3.93
330.26	-3.74
330.628	-3.74
330.995	-3.48
331.362	-2.99
331.73	-2.49
332.097	-2.09
332.464	-1.99
332.831	-1.83
333.199	-1.56
333.566	-1.39
333.933	-1.37
334.3	-1.48
334.667	-1.1
335.034	-0.76
335.401	-0.59
335.768	-0.42
336.135	-0.18
336.502	0.06
336.868	0.35
337.235	0.58
337.602	0.66
337.969	0.76
338.335	1.03
338.702	1.18
339.069	1.32
339.435	1.49
339.802	1.44
340.168	1.66
340.535	2.03
340.901	2.05
341.267	2.24
341.634	2.63
342	2.97
342.366	3.14
342.733	3.35
343.099	3.42
343.465	3.64
343.831	3.87
344.197	4.16
344.563	4.34
344.929	4.45
345.295	4.58
345.661	4.78
346.027	4.99
346.393	5.12
346.759	5.04
347.125	4.98
347.491	5.22
347.856	5.45
348.222	5.54
348.588	5.67
348.953	5.69
349.319	5.76
349.684	5.8
350.05	5.82
350.415	5.8
350.781	5.96
351.146	6.07
351.512	6.1
351.877	6.21
352.242	6.35
352.608	6.43
352.973	6.43
353.338	6.47
353.703	6.51
354.068	6.67
354.433	6.89
354.798	7.11
355.164	7.16
355.528	7.08
355.893	7.14
356.258	7.3
356.623	7.53
356.988	7.59
357.353	7.71
357.718	7.84
358.082	7.94
358.447	7.92
358.812	7.95
359.176	8.01
359.541	8
359.905	8.02
360.27	8.11
360.634	8.29
360.999	8.36
361.363	8.5
361.728	8.52
362.092	8.61
362.456	8.55
362.821	8.63
363.185	8.73
363.549	8.86
363.913	8.9
364.277	8.87
364.641	8.92
365.005	8.92
365.369	8.97
365.733	9.02
366.097	9.15
366.461	9.2
366.825	9.25
367.189	9.36
367.553	9.38
367.916	9.44
368.28	9.44
368.644	9.56
369.007	9.6
369.371	9.67
369.734	9.73
370.098	9.95
370.461	10.07
370.825	10.13
371.188	10.18
371.552	10.25
371.915	10.35
372.278	10.5
372.642	10.68
373.005	10.77
373.368	10.81
373.731	10.86
374.094	10.99
374.457	11.03
374.82	11.01
375.183	11.11
375.546	11.18
375.909	11.28
376.272	11.26
376.635	11.28
376.998	11.29
377.361	11.37
377.723	11.36
378.086	11.39
378.449	11.48
378.811	11.54
379.174	11.65
379.537	11.69
379.899	11.71
380.262	11.69
380.624	11.66
380.987	11.73
381.349	11.77
381.711	11.77
382.074	11.83
382.436	11.91
382.798	11.92
383.16	11.95
383.522	11.98
383.884	12.04
384.247	12.15
384.609	12.19
384.971	12.18
385.333	12.17
385.695	12.16
386.056	12.19
386.418	12.16
386.78	12.12
387.142	12.06
387.504	12.01
387.865	11.96
388.227	12.04
388.589	12.07
388.95	12.06
389.312	12.04
389.673	12.06
390.035	12.06
390.396	12.01
390.758	11.94
391.119	11.93
391.48	11.89
391.842	11.82
392.203	11.79
392.564	11.76
392.925	11.77
393.286	11.76
393.648	11.73
394.009	11.74
394.37	11.74
394.731	11.78
395.092	11.73
395.452	11.72
395.813	11.65
396.174	11.58
396.535	11.53
396.896	11.48
397.257	11.43
397.617	11.37
397.978	11.37
398.338	11.38
398.699	11.35
399.06	11.32
399.42	11.29
399.781	11.23
400.141	11.16
400.501	11.12
400.862	11.07
401.222	11.02
401.582	10.97
401.943	10.94
402.303	10.91
402.663	10.93
403.023	10.92
403.383	10.9
403.743	10.89
404.103	10.9
404.463	10.97
404.823	10.97
405.183	11.01
405.543	11
405.903	11.01
406.262	11
406.622	11
406.982	11
407.342	11.05
407.701	11.1
408.061	11.1
408.42	11.13
408.78	11.15
409.139	11.15
409.499	11.16
409.858	11.2
410.217	11.21
410.577	11.25
410.936	11.24
411.295	11.23
411.655	11.21
412.014	11.14
412.373	11.08
412.732	10.97
413.091	10.93
413.45	10.87
413.809	10.8
414.168	10.74
414.527	10.62
414.886	10.53
415.245	10.45
415.603	10.36
415.962	10.24
416.321	10.12
416.679	10.03
417.038	9.93
417.397	9.79
417.755	9.69
418.114	9.59
418.472	9.51
418.831	9.45
419.189	9.39
419.547	9.32
419.906	9.25
420.264	9.19
420.622	9.12
420.981	9.05
421.339	9.01
421.697	8.93
422.055	8.9
422.413	8.85
422.771	8.82
423.129	8.8
423.487	8.79
423.845	8.78
424.203	8.77
424.56	8.75
424.918	8.75
425.276	8.77
425.634	8.81
425.991	8.82
426.349	8.84
426.707	8.85
427.064	8.84
427.422	8.88
427.779	8.93
428.137	8.98
428.494	9.04
428.851	9.04
429.209	9.09
429.566	9.13
429.923	9.16
430.28	9.17
430.637	9.17
430.995	9.19
431.352	9.23
431.709	9.26
432.066	9.29
432.423	9.33
432.78	9.34
433.137	9.34
433.493	9.39
433.85	9.42
434.207	9.43
434.564	9.47
434.92	9.48
435.277	9.47
435.634	9.47
435.99	9.45
436.347	9.49
436.703	9.52
437.06	9.52
437.416	9.56
437.773	9.56
438.129	9.57
438.485	9.58
438.841	9.57
439.198	9.57
439.554	9.58
439.91	9.57
440.266	9.55
440.622	9.52
440.978	9.47
441.334	9.4
441.69	9.37
442.046	9.31
442.402	9.23
442.758	9.17
443.113	9.11
443.469	9.08
443.825	9.02
444.181	8.98
444.536	8.95
444.892	8.9
445.247	8.88
445.603	8.84
445.958	8.81
446.314	8.76
446.669	8.71
447.025	8.67
447.38	8.64
447.735	8.6
448.09	8.57
448.446	8.56
448.801	8.55
449.156	8.51
449.511	8.5
449.866	8.51
450.221	8.52
450.576	8.54
450.931	8.53
451.286	8.53
451.641	8.53
451.995	8.52
452.35	8.52
452.705	8.5
453.06	8.5
453.414	8.51
453.769	8.52
454.123	8.53
454.478	8.51
454.832	8.52
455.187	8.52
455.541	8.51
455.896	8.49
456.25	8.48
456.604	8.5
456.958	8.52
457.313	8.54
457.667	8.57
458.021	8.61
458.375	8.66
458.729	8.72
459.083	8.77
459.437	8.82
459.791	8.88
460.145	8.95
460.499	9.01
460.852	9.07
461.206	9.13
461.56	9.21
461.914	9.3
462.267	9.37
462.621	9.49
462.974	9.63
463.328	9.77
463.681	9.93
464.035	10.09
464.388	10.25
464.742	10.39
465.095	10.51
465.448	10.61
465.801	10.72
466.155	10.81
466.508	10.92
466.861	11.02
467.214	11.1
467.567	11.16
467.92	11.23
468.273	11.32
468.626	11.39
468.979	11.45
469.332	11.5
469.684	11.56
470.037	11.6
470.39	11.64
470.743	11.71
471.095	11.75
471.448	11.79
471.8	11.81
472.153	11.85
472.505	11.85
472.858	11.85
473.21	11.81
473.562	11.76
473.915	11.7
474.267	11.64
474.619	11.57
474.971	11.5
475.324	11.44
475.676	11.35
476.028	11.27
476.38	11.21
476.732	11.12
477.084	11.02
477.436	10.9
477.787	10.77
478.139	10.62
478.491	10.47
478.843	10.31
479.195	10.17
479.546	9.95
479.898	9.69
480.249	9.45
480.601	9.26
480.952	9.12
481.304	9.02
481.655	8.95
482.007	8.9
482.358	8.86
482.709	8.81
483.061	8.77
483.412	8.74
483.763	8.69
484.114	8.66
484.465	8.64
484.816	8.63
485.167	8.63
485.518	8.63
485.869	8.65
486.22	8.67
486.571	8.71
486.922	8.74
487.272	8.81
487.623	8.89
487.974	9
488.324	9.11
488.675	9.22
489.025	9.31
489.376	9.39
489.726	9.48
490.077	9.58
490.427	9.7
490.778	9.82
491.128	9.97
491.478	10.14
491.828	10.32
492.179	10.51
492.529	10.7
492.879	10.91
493.229	11.1
493.579	11.28
493.929	11.44
494.279	11.63
494.629	11.84
494.979	12.12
495.328	12.43
495.678	12.76
496.028	13.12
496.378	13.44
496.727	13.74
497.077	14.01
497.426	14.28
497.776	14.5
498.125	14.74
498.475	14.99
498.824	15.2
499.174	15.43
499.523	15.65
499.872	15.91
500.221	16.15
500.571	16.36
500.92	16.61
501.269	16.84
501.618	17.05
501.967	17.28
502.316	17.5
502.665	17.7
503.014	17.88
503.363	18.07
503.711	18.25
504.06	18.38
504.409	18.52
504.758	18.64
505.106	18.77
505.455	18.89
505.803	18.99
506.152	19.1
506.5	19.17
506.849	19.26
507.197	19.34
507.546	19.42
507.894	19.51
508.242	19.59
508.59	19.65
508.939	19.72
509.287	19.78
509.635	19.83
509.983	19.89
510.331	19.93
510.679	19.95
511.027	19.96
511.375	20.02
511.723	20.09
512.07	20.12
512.418	20.18
512.766	20.21
513.114	20.25
513.461	20.27
513.809	20.28
514.156	20.28
514.504	20.28
514.851	20.27
515.199	20.25
515.546	20.21
515.893	20.19
516.241	20.18
516.588	20.18
516.935	20.16
517.282	20.15
517.63	20.12
517.977	20.12
518.324	20.12
518.671	20.13
519.018	20.1
519.365	20.09
519.711	20.02
520.058	20
520.405	19.98
520.752	19.96
521.099	19.94
521.445	19.92
521.792	19.86
522.138	19.82
522.485	19.8
522.832	19.78
523.178	19.79
523.524	19.76
523.871	19.71
524.217	19.65
524.563	19.58
524.91	19.47
525.256	19.39
525.602	19.3
525.948	19.24
526.294	19.19
526.64	19.15
526.986	19.14
527.332	19.13
527.678	19.11
528.024	19.1
528.37	19.1
528.716	19.08
529.061	19.06
529.407	19.03
529.753	18.99
530.098	18.93
530.444	18.87
530.789	18.84
531.135	18.82
531.48	18.8
531.826	18.8
532.171	18.81
532.516	18.78
532.862	18.76
533.207	18.71
533.552	18.66
533.897	18.63
534.242	18.6
534.587	18.56
534.932	18.53
535.277	18.5
535.622	18.45
535.967	18.43
536.312	18.41
536.657	18.38
537.001	18.34
537.346	18.28
537.691	18.2
538.035	18.1
538.38	18.03
538.724	17.98
539.069	17.93
539.413	17.87
539.758	17.82
540.102	17.8
540.446	17.79
540.791	17.77
541.135	17.74
541.479	17.7
541.823	17.67
542.167	17.62
542.512	17.59
542.856	17.53
543.2	17.49
543.543	17.45
543.887	17.41
544.231	17.39
544.575	17.39
544.919	17.38
545.262	17.39
545.606	17.37
545.95	17.34
546.293	17.29
546.637	17.25
546.98	17.22
547.324	17.15
547.667	17.1
548.011	17.01
548.354	16.96
548.697	16.9
549.04	16.85
549.384	16.8
549.727	16.72
550.07	16.69
550.413	16.62
550.756	16.56
551.099	16.5
551.442	16.44
551.785	16.37
552.128	16.29
552.47	16.23
552.813	16.15
553.156	16.08
553.499	16.03
553.841	15.99
554.184	15.95
554.526	15.93
554.869	15.86
555.211	15.84
555.554	15.78
555.896	15.73
556.238	15.66
556.581	15.63
556.923	15.57
557.265	15.5
557.607	15.43
557.949	15.39
558.291	15.34
558.633	15.31
558.975	15.25
559.317	15.21
559.659	15.15
560.001	15.11
560.343	15.05
560.685	14.99
561.026	14.92
561.368	14.83
561.71	14.73
562.051	14.67
562.393	14.61
562.734	14.54
563.076	14.47
563.417	14.4
563.759	14.36
564.1	14.31
564.441	14.27
564.782	14.2
565.124	14.13
565.465	14.07
565.806	13.99
566.147	13.93
566.488	13.87
566.829	13.83
567.17	13.76
567.511	13.73
567.851	13.65
568.192	13.63
568.533	13.58
568.874	13.55
569.214	13.52
569.555	13.45
569.895	13.41
570.236	13.35
570.576	13.28
570.917	13.21
571.257	13.18
571.598	13.09
571.938	13.06
572.278	13
572.618	12.95
572.959	12.92
573.299	12.88
573.639	12.83
573.979	12.76
574.319	12.71
574.659	12.66
574.999	12.62
575.339	12.56
575.678	12.51
576.018	12.43
576.358	12.34
576.698	12.29
577.037	12.22
577.377	12.18
577.716	12.13
578.056	12.08
578.395	11.98
578.735	11.94
579.074	11.86
579.413	11.8
579.753	11.76
580.092	11.71
580.431	11.68
580.77	11.66
581.109	11.64
581.448	11.63
581.787	11.55
582.126	11.48
582.465	11.42
582.804	11.37
583.143	11.37
583.482	11.32
583.82	11.27
584.159	11.23
584.498	11.19
584.836	11.13
585.175	11.08
585.514	11.05
585.852	11.05
586.19	11.07
586.529	11.04
586.867	11.01
587.205	10.99
587.544	10.98
587.882	10.89
588.22	10.87
588.558	10.8
588.896	10.78
589.234	10.76
589.572	10.74
589.91	10.7
590.248	10.68
590.586	10.68
590.924	10.68
591.262	10.68
591.599	10.65
591.937	10.62
592.275	10.59
592.612	10.56
592.95	10.52
593.287	10.5
593.625	10.51
593.962	10.52
594.299	10.52
594.637	10.48
594.974	10.48
595.311	10.48
595.648	10.48
595.985	10.49
596.322	10.44
596.659	10.46
596.996	10.44
597.333	10.38
597.67	10.32
598.007	10.26
598.344	10.22
598.681	10.18
599.017	10.15
599.354	10.08
599.691	10.04
600.027	10.03
600.364	9.99
600.7	9.93
601.037	9.89
601.373	9.84
601.71	9.82
602.046	9.8
602.382	9.79
602.718	9.78
603.054	9.74
603.391	9.74
603.727	9.68
604.063	9.66
604.399	9.65
604.735	9.67
605.071	9.68
605.406	9.66
605.742	9.67
606.078	9.68
606.414	9.73
606.749	9.76
607.085	9.75
607.421	9.75
607.756	9.74
608.092	9.68
608.427	9.66
608.762	9.6
609.098	9.58
609.433	9.49
609.768	9.46
610.104	9.42
610.439	9.4
610.774	9.39
611.109	9.36
611.444	9.36
611.779	9.31
612.114	9.26
612.449	9.26
612.784	9.2
613.118	9.15
613.453	9.11
613.788	9.05
614.123	8.95
614.457	8.85
614.792	8.79
615.126	8.71
615.461	8.62
615.795	8.59
616.13	8.52
616.464	8.51
616.798	8.48
617.132	8.5
617.467	8.46
617.801	8.41
618.135	8.39
618.469	8.37
618.803	8.34
619.137	8.32
619.471	8.27
619.805	8.28
620.139	8.24
620.472	8.18
620.806	8.14
621.14	8.14
621.473	8.15
621.807	8.12
622.141	8.16
622.474	8.18
622.808	8.17
623.141	8.15
623.474	8.18
623.808	8.19
624.141	8.16
624.474	8.15
624.807	8.15
625.141	8.19
625.474	8.17
625.807	8.15
626.14	8.16
626.473	8.17
626.806	8.15
627.138	8.15
627.471	8.12
627.804	8.13
628.137	8.09
628.469	8.04
628.802	7.98
629.135	7.94
629.467	7.9
629.8	7.85
630.132	7.84
630.465	7.76
630.797	7.75
631.129	7.72
631.461	7.72
631.794	7.69
632.126	7.6
632.458	7.58
632.79	7.58
633.122	7.52
633.454	7.53
633.786	7.49
634.118	7.48
634.45	7.5
634.781	7.46
635.113	7.49
635.445	7.46
635.777	7.48
636.108	7.47
636.44	7.45
636.771	7.43
637.103	7.41
637.434	7.39
637.765	7.34
638.097	7.32
638.428	7.27
638.759	7.25
639.09	7.23
639.422	7.19
639.753	7.16
640.084	7.16
640.415	7.12
640.746	7.11
641.077	7.06
641.407	7.01
641.738	6.99
642.069	6.92
642.4	6.9
642.73	6.9
643.061	6.86
643.392	6.86
643.722	6.89
644.053	6.85
644.383	6.84
644.713	6.8
645.044	6.75
645.374	6.72
645.704	6.64
646.034	6.66
646.365	6.65
646.695	6.69
647.025	6.69
647.355	6.65
647.685	6.64
648.015	6.71
648.344	6.75
648.674	6.74
649.004	6.82
649.334	6.88
649.663	6.9
649.993	6.94
650.323	6.94
