Data from pcis_c_m2_p6_Reflection_2.txt Node
Date: Wed Jul 12 17:36:39 ART 2017
User: rodoncho
Spectrometer: USB2E3644
Trigger mode: 4
Integration Time (sec): 6.000000E-2
Scans to average: 10
Electric dark correction enabled: true
Nonlinearity correction enabled: false
Boxcar width: 10
XAxis mode: Wavelengths
Number of Pixels in Spectrum: 2048
>>>>>Begin Spectral Data<<<<<
178.315	3900
178.696	438.46
179.076	1875
179.457	212.2
179.838	56.25
180.218	-354.55
180.599	-169.57
180.979	-100
181.36	-15
181.74	-78.15
182.121	3600
182.501	82.43
182.881	89.11
183.262	98.57
183.642	28.92
184.022	77.85
184.402	87.87
184.783	106.81
185.163	111.92
185.543	112.75
185.923	122.27
186.303	118.62
186.683	120.11
187.063	113.16
187.443	107.81
187.823	104.61
188.203	108.08
188.583	108.03
188.963	101.23
189.343	98.83
189.723	95.77
190.102	97.07
190.482	100.07
190.862	100.87
191.242	101.46
191.621	101.88
192.001	98.71
192.38	95.02
192.76	91.36
193.14	88.53
193.519	91.33
193.898	94.97
194.278	96.05
194.657	96.8
195.037	97.02
195.416	98.19
195.795	97.26
196.175	96.14
196.554	97.97
196.933	100.94
197.312	101.7
197.692	103.14
198.071	102.53
198.45	101.61
198.829	101.15
199.208	100.61
199.587	100.78
199.966	102.23
200.345	104.33
200.724	104.83
201.103	106.18
201.482	106.14
201.86	105.5
202.239	106.03
202.618	106.07
202.997	105.51
203.375	105.11
203.754	103.2
204.133	103.24
204.511	103.07
204.89	101.69
205.269	102.03
205.647	101.91
206.026	103.27
206.404	104.23
206.782	105.04
207.161	107.45
207.539	108.58
207.918	108.02
208.296	107.93
208.674	108.59
209.052	109.79
209.431	109.08
209.809	108.16
210.187	108.37
210.565	109.21
210.943	111.05
211.321	111.56
211.699	114.1
212.077	114.54
212.455	113.21
212.833	112.27
213.211	111.17
213.589	111.26
213.967	110.67
214.345	109.33
214.722	109.14
215.1	108.62
215.478	108.22
215.855	108.89
216.233	108.25
216.611	107.79
216.988	107.09
217.366	107.49
217.743	108
218.121	107.21
218.498	107.52
218.876	107.27
219.253	106.9
219.631	106.79
220.008	107.06
220.385	107.97
220.762	108.34
221.14	109.08
221.517	109.01
221.894	109.24
222.271	109.59
222.648	109.7
223.025	109.1
223.402	108.56
223.78	107.35
224.157	107.47
224.533	107.26
224.91	107.15
225.287	108.4
225.664	108.9
226.041	108.95
226.418	108.38
226.795	107.76
227.171	108.23
227.548	108.84
227.925	109.72
228.301	110.17
228.678	110.68
229.055	110.22
229.431	111.42
229.808	111.22
230.184	111.93
230.561	112.26
230.937	112.3
231.313	113.44
231.69	113.47
232.066	112.26
232.442	111.75
232.819	111.63
233.195	110.43
233.571	110.27
233.947	109.21
234.323	108.47
234.699	109.24
235.075	109.81
235.451	109.68
235.827	110.07
236.203	110.55
236.579	111.54
236.955	112.52
237.331	112.41
237.707	113.67
238.083	115.37
238.459	118.97
238.834	124.65
239.21	129.21
239.586	133.76
239.961	140.98
240.337	145.77
240.713	148.09
241.088	150.44
241.464	152.13
241.839	158.58
242.215	167.64
242.59	178.85
242.965	201.38
243.341	250.65
243.716	323.17
244.091	450.69
244.467	652.51
244.842	1103.97
245.217	2409.28
245.592	6952.94
245.967	95040
246.343	10779.55
246.718	3457.66
247.093	2706.94
247.468	2807.78
247.843	2881.1
248.218	-67285.71
248.593	-2572.83
248.967	-1205.41
249.342	-894.84
249.717	-889.79
250.092	-866.73
250.467	-976.72
250.841	-1846.87
251.216	3022.78
251.591	915.46
251.965	583.98
252.34	469.7
252.714	396.46
253.089	349.09
253.463	332.43
253.838	337.63
254.212	354.29
254.587	389.51
254.961	447.17
255.335	623.8
255.71	1906.23
256.084	-1248.34
256.458	-444.5
256.832	-278.04
257.206	-220.56
257.581	-194.75
257.955	-183.71
258.329	-170.97
258.703	-155.41
259.077	-145.62
259.451	-139.56
259.825	-134.38
260.199	-129.12
260.572	-124.68
260.946	-119.46
261.32	-116.92
261.694	-114.41
262.068	-112.92
262.441	-111.29
262.815	-109.25
263.189	-108.69
263.562	-115.72
263.936	-133.95
264.309	-160.72
264.683	-194.43
265.056	-221.94
265.43	-226.33
265.803	-216.5
266.176	-207.55
266.55	-211.28
266.923	-205.61
267.296	-194.29
267.67	-184.3
268.043	-166.89
268.416	-151.14
268.789	-134.59
269.162	-118.35
269.535	-108.31
269.908	-102.22
270.281	-98.88
270.654	-99.14
271.027	-103.52
271.4	-106.16
271.773	-105.94
272.146	-104.38
272.519	-99.98
272.891	-96.94
273.264	-97.07
273.637	-97.79
274.01	-99.44
274.382	-98.63
274.755	-96.3
275.127	-95.74
275.5	-96.01
275.872	-96.39
276.245	-95.67
276.617	-97.4
276.99	-102.31
277.362	-105.87
277.734	-108.75
278.107	-108.2
278.479	-102.75
278.851	-95.9
279.223	-90.62
279.596	-87.98
279.968	-86.85
280.34	-87.09
280.712	-84.8
281.084	-79.61
281.456	-72.31
281.828	-66.45
282.2	-61.55
282.572	-58.23
282.944	-55.71
283.315	-54.14
283.687	-53.41
284.059	-53.19
284.431	-53.23
284.802	-52.48
285.174	-51.01
285.546	-49.14
285.917	-47.63
286.289	-45.81
286.66	-44.4
287.032	-44.24
287.403	-43.47
287.775	-42.64
288.146	-42.09
288.518	-41.6
288.889	-41.52
289.26	-43.31
289.632	-44.56
290.003	-46.19
290.374	-47.19
290.745	-47.04
291.116	-46.66
291.487	-45.17
291.858	-43.59
292.229	-42.26
292.6	-41.04
292.971	-40.35
293.342	-38.14
293.713	-36.44
294.084	-35.75
294.455	-35.68
294.826	-34.39
295.196	-34.15
295.567	-33.91
295.938	-33.52
296.308	-33.33
296.679	-32.45
297.05	-31.82
297.42	-30.66
297.791	-29.49
298.161	-28.85
298.532	-28.54
298.902	-27.93
299.272	-27.58
299.643	-27.26
300.013	-26.62
300.383	-26.22
300.754	-25.68
301.124	-26.12
301.494	-26.2
301.864	-26.69
302.234	-26.66
302.604	-27.19
302.974	-26.9
303.344	-26.39
303.714	-26.28
304.084	-25.62
304.454	-25.48
304.824	-24.32
305.194	-23.73
305.563	-23.02
305.933	-21.56
306.303	-20.27
306.673	-19.59
307.042	-19.1
307.412	-18.47
307.781	-17.69
308.151	-16.92
308.521	-16.38
308.89	-15.97
309.259	-15.71
309.629	-15.23
309.998	-14.92
310.368	-14.78
310.737	-14.66
311.106	-14.52
311.475	-13.87
311.845	-13.38
312.214	-12.83
312.583	-12.8
312.952	-12.78
313.321	-12.81
313.69	-13.16
314.059	-13.65
314.428	-13.84
314.797	-13.97
315.166	-14.55
315.535	-14.9
315.904	-15.17
316.272	-15.21
316.641	-15.65
317.01	-15.82
317.379	-15.89
317.747	-15.83
318.116	-15.12
318.484	-14.61
318.853	-14.39
319.221	-14.52
319.59	-14.66
319.958	-14.68
320.327	-14.3
320.695	-13.91
321.063	-13.53
321.432	-13.24
321.8	-12.9
322.168	-11.98
322.536	-11.08
322.905	-10.18
323.273	-9.66
323.641	-9.38
324.009	-9.45
324.377	-8.77
324.745	-8.32
325.113	-7.9
325.481	-7.44
325.849	-7.15
326.216	-6.83
326.584	-6.31
326.952	-5.88
327.32	-5.32
327.687	-5.03
328.055	-4.76
328.423	-4.61
328.79	-4.38
329.158	-4.23
329.525	-3.72
329.893	-3.44
330.26	-3.49
330.628	-3.51
330.995	-3.37
331.362	-2.94
331.73	-2.37
332.097	-1.99
332.464	-1.77
332.831	-1.54
333.199	-1.19
333.566	-1.1
333.933	-1.13
334.3	-1.35
334.667	-1.06
335.034	-0.93
335.401	-0.73
335.768	-0.65
336.135	-0.37
336.502	-0.08
336.868	0.22
337.235	0.46
337.602	0.85
337.969	1.22
338.335	1.57
338.702	1.83
339.069	2.02
339.435	2.14
339.802	2.09
340.168	2.26
340.535	2.53
340.901	2.52
341.267	2.91
341.634	3.31
342	3.75
342.366	3.97
342.733	4.09
343.099	4.2
343.465	4.42
343.831	4.49
344.197	4.53
344.563	4.68
344.929	4.81
345.295	4.81
345.661	4.94
346.027	5.13
346.393	5.35
346.759	5.44
347.125	5.54
347.491	5.81
347.856	6
348.222	6.1
348.588	6.26
348.953	6.29
349.319	6.39
349.684	6.53
350.05	6.6
350.415	6.71
350.781	6.9
351.146	7.17
351.512	7.36
351.877	7.64
352.242	7.75
352.608	7.87
352.973	7.81
353.338	7.81
353.703	7.89
354.068	8.06
354.433	8.14
354.798	8.32
355.164	8.45
355.528	8.43
355.893	8.41
356.258	8.53
356.623	8.59
356.988	8.69
357.353	8.92
357.718	9.03
358.082	9.18
358.447	9.25
358.812	9.16
359.176	9.3
359.541	9.3
359.905	9.46
360.27	9.54
360.634	9.73
360.999	9.86
361.363	9.93
361.728	9.89
362.092	9.97
362.456	9.97
362.821	10.01
363.185	10.07
363.549	10.31
363.913	10.39
364.277	10.52
364.641	10.61
365.005	10.6
365.369	10.71
365.733	10.79
366.097	10.88
366.461	11
366.825	11.08
367.189	11.17
367.553	11.16
367.916	11.24
368.28	11.33
368.644	11.45
369.007	11.55
369.371	11.68
369.734	11.77
370.098	11.92
370.461	11.99
370.825	12.08
371.188	12.16
371.552	12.21
371.915	12.25
372.278	12.34
372.642	12.4
373.005	12.42
373.368	12.48
373.731	12.56
374.094	12.67
374.457	12.69
374.82	12.77
375.183	12.83
375.546	12.89
375.909	12.94
376.272	12.93
376.635	12.92
376.998	12.95
377.361	12.98
377.723	13.04
378.086	13.16
378.449	13.21
378.811	13.25
379.174	13.35
379.537	13.4
379.899	13.51
380.262	13.61
380.624	13.63
380.987	13.69
381.349	13.75
381.711	13.78
382.074	13.85
382.436	13.91
382.798	13.97
383.16	13.98
383.522	14.02
383.884	14.06
384.247	14.17
384.609	14.2
384.971	14.2
385.333	14.24
385.695	14.2
386.056	14.26
386.418	14.18
386.78	14.21
387.142	14.23
387.504	14.16
387.865	14.17
388.227	14.21
388.589	14.22
388.95	14.21
389.312	14.21
389.673	14.19
390.035	14.14
390.396	14.11
390.758	14.11
391.119	14.04
391.48	14.05
391.842	14.05
392.203	14.08
392.564	14.08
392.925	14.06
393.286	14.1
393.648	14.08
394.009	14.09
394.37	14.07
394.731	14.04
395.092	14.04
395.452	14.01
395.813	14.01
396.174	14
396.535	13.99
396.896	13.98
397.257	13.98
397.617	13.99
397.978	14.03
398.338	14.04
398.699	14.08
399.06	14.08
399.42	14.01
399.781	13.93
400.141	13.88
400.501	13.84
400.862	13.81
401.222	13.77
401.582	13.74
401.943	13.72
402.303	13.69
402.663	13.65
403.023	13.59
403.383	13.53
403.743	13.49
404.103	13.48
404.463	13.45
404.823	13.45
405.183	13.42
405.543	13.35
405.903	13.31
406.262	13.3
406.622	13.25
406.982	13.23
407.342	13.24
407.701	13.2
408.061	13.15
408.42	13.09
408.78	13.06
409.139	13.06
409.499	13.02
409.858	13.02
410.217	13
410.577	13.01
410.936	12.99
411.295	12.93
411.655	12.85
412.014	12.79
412.373	12.68
412.732	12.63
413.091	12.57
413.45	12.47
413.809	12.43
414.168	12.35
414.527	12.28
414.886	12.16
415.245	12.11
415.603	12.05
415.962	11.94
416.321	11.87
416.679	11.79
417.038	11.7
417.397	11.59
417.755	11.48
418.114	11.39
418.472	11.33
418.831	11.27
419.189	11.2
419.547	11.13
419.906	11.08
420.264	11
420.622	10.95
420.981	10.89
421.339	10.81
421.697	10.75
422.055	10.72
422.413	10.69
422.771	10.64
423.129	10.61
423.487	10.59
423.845	10.57
424.203	10.54
424.56	10.52
424.918	10.52
425.276	10.53
425.634	10.52
425.991	10.5
426.349	10.5
426.707	10.5
427.064	10.5
427.422	10.49
427.779	10.5
428.137	10.48
428.494	10.51
428.851	10.52
429.209	10.5
429.566	10.46
429.923	10.43
430.28	10.41
430.637	10.39
430.995	10.35
431.352	10.31
431.709	10.31
432.066	10.29
432.423	10.27
432.78	10.24
433.137	10.22
433.493	10.21
433.85	10.17
434.207	10.11
434.564	10.08
434.92	10.04
435.277	10.01
435.634	9.96
435.99	9.91
436.347	9.85
436.703	9.82
437.06	9.77
437.416	9.75
437.773	9.7
438.129	9.66
438.485	9.64
438.841	9.6
439.198	9.57
439.554	9.55
439.91	9.53
440.266	9.5
440.622	9.48
440.978	9.44
441.334	9.41
441.69	9.39
442.046	9.36
442.402	9.31
442.758	9.25
443.113	9.21
443.469	9.17
443.825	9.16
444.181	9.14
444.536	9.13
444.892	9.1
445.247	9.1
445.603	9.08
445.958	9.08
446.314	9.07
446.669	9.05
447.025	9.04
447.38	9.03
447.735	9.02
448.09	9.01
448.446	8.99
448.801	9
449.156	8.99
449.511	8.99
449.866	9
450.221	9.04
450.576	9.06
450.931	9.07
451.286	9.04
451.641	9.04
451.995	9.04
452.35	9.05
452.705	9.06
453.06	9.06
453.414	9.07
453.769	9.07
454.123	9.04
454.478	9.01
454.832	8.97
455.187	8.93
455.541	8.87
455.896	8.81
456.25	8.74
456.604	8.7
456.958	8.66
457.313	8.64
457.667	8.62
458.021	8.6
458.375	8.58
458.729	8.59
459.083	8.59
459.437	8.59
459.791	8.57
460.145	8.57
460.499	8.55
460.852	8.53
461.206	8.52
461.56	8.52
461.914	8.52
462.267	8.53
462.621	8.54
462.974	8.55
463.328	8.58
463.681	8.61
464.035	8.63
464.388	8.65
464.742	8.66
465.095	8.65
465.448	8.65
465.801	8.69
466.155	8.69
466.508	8.68
466.861	8.66
467.214	8.67
467.567	8.66
467.92	8.65
468.273	8.64
468.626	8.64
468.979	8.63
469.332	8.62
469.684	8.61
470.037	8.61
470.39	8.61
470.743	8.6
471.095	8.62
471.448	8.64
471.8	8.64
472.153	8.65
472.505	8.67
472.858	8.69
473.21	8.66
473.562	8.63
473.915	8.62
474.267	8.61
474.619	8.59
474.971	8.57
475.324	8.57
475.676	8.58
476.028	8.55
476.38	8.56
476.732	8.54
477.084	8.52
477.436	8.52
477.787	8.51
478.139	8.52
478.491	8.47
478.843	8.44
479.195	8.41
479.546	8.33
479.898	8.22
480.249	8.13
480.601	8.06
480.952	8.02
481.304	7.99
481.655	7.97
482.007	7.96
482.358	7.95
482.709	7.94
483.061	7.92
483.412	7.9
483.763	7.88
484.114	7.86
484.465	7.85
484.816	7.83
485.167	7.83
485.518	7.81
485.869	7.8
486.22	7.8
486.571	7.81
486.922	7.82
487.272	7.84
487.623	7.86
487.974	7.88
488.324	7.89
488.675	7.9
489.025	7.91
489.376	7.92
489.726	7.94
490.077	7.95
490.427	7.97
490.778	8
491.128	8.03
491.478	8.07
491.828	8.11
492.179	8.16
492.529	8.19
492.879	8.23
493.229	8.26
493.579	8.27
493.929	8.26
494.279	8.26
494.629	8.28
494.979	8.33
495.328	8.38
495.678	8.43
496.028	8.48
496.378	8.51
496.727	8.53
497.077	8.55
497.426	8.58
497.776	8.59
498.125	8.61
498.475	8.63
498.824	8.64
499.174	8.65
499.523	8.65
499.872	8.66
500.221	8.67
500.571	8.68
500.92	8.72
501.269	8.77
501.618	8.78
501.967	8.8
502.316	8.79
502.665	8.8
503.014	8.83
503.363	8.87
503.711	8.88
504.06	8.9
504.409	8.88
504.758	8.88
505.106	8.9
505.455	8.91
505.803	8.92
506.152	8.89
506.5	8.9
506.849	8.89
507.197	8.89
507.546	8.89
507.894	8.91
508.242	8.91
508.59	8.9
508.939	8.92
509.287	8.92
509.635	8.94
509.983	8.97
510.331	8.97
510.679	8.97
511.027	8.99
511.375	9.01
511.723	9.06
512.07	9.08
512.418	9.09
512.766	9.11
513.114	9.15
513.461	9.21
513.809	9.23
514.156	9.27
514.504	9.3
514.851	9.33
515.199	9.35
515.546	9.36
515.893	9.37
516.241	9.39
516.588	9.42
516.935	9.44
517.282	9.45
517.63	9.47
517.977	9.48
518.324	9.49
518.671	9.49
519.018	9.51
519.365	9.52
519.711	9.53
520.058	9.52
520.405	9.52
520.752	9.53
521.099	9.55
521.445	9.56
521.792	9.58
522.138	9.58
522.485	9.59
522.832	9.63
523.178	9.67
523.524	9.7
523.871	9.72
524.217	9.74
524.563	9.72
524.91	9.71
525.256	9.69
525.602	9.69
525.948	9.69
526.294	9.68
526.64	9.68
526.986	9.7
527.332	9.72
527.678	9.72
528.024	9.72
528.37	9.73
528.716	9.74
529.061	9.75
529.407	9.77
529.753	9.78
530.098	9.78
530.444	9.79
530.789	9.8
531.135	9.82
531.48	9.83
531.826	9.87
532.171	9.92
532.516	9.97
532.862	10.02
533.207	10.07
533.552	10.1
533.897	10.13
534.242	10.17
534.587	10.2
534.932	10.25
535.277	10.27
535.622	10.29
535.967	10.34
536.312	10.38
536.657	10.42
537.001	10.47
537.346	10.54
537.691	10.59
538.035	10.59
538.38	10.63
538.724	10.66
539.069	10.69
539.413	10.7
539.758	10.73
540.102	10.77
540.446	10.78
540.791	10.82
541.135	10.87
541.479	10.91
541.823	10.94
542.167	10.96
542.512	11
542.856	11.02
543.2	11.03
543.543	11.03
543.887	11.07
544.231	11.11
544.575	11.15
544.919	11.21
545.262	11.29
545.606	11.35
545.95	11.42
546.293	11.48
546.637	11.54
546.98	11.61
547.324	11.67
547.667	11.77
548.011	11.81
548.354	11.85
548.697	11.88
549.04	11.93
549.384	12
549.727	12.06
550.07	12.13
550.413	12.23
550.756	12.33
551.099	12.4
551.442	12.47
551.785	12.54
552.128	12.6
552.47	12.67
552.813	12.77
553.156	12.81
553.499	12.91
553.841	13.01
554.184	13.07
554.526	13.16
554.869	13.21
555.211	13.29
555.554	13.38
555.896	13.49
556.238	13.58
556.581	13.68
556.923	13.81
557.265	13.93
557.607	14.03
557.949	14.14
558.291	14.25
558.633	14.35
558.975	14.46
559.317	14.57
559.659	14.69
560.001	14.79
560.343	14.92
560.685	15
561.026	15.09
561.368	15.22
561.71	15.31
562.051	15.43
562.393	15.61
562.734	15.72
563.076	15.85
563.417	15.98
563.759	16.09
564.1	16.21
564.441	16.32
564.782	16.44
565.124	16.55
565.465	16.66
565.806	16.81
566.147	16.96
566.488	17.1
566.829	17.21
567.17	17.33
567.511	17.46
567.851	17.63
568.192	17.77
568.533	17.93
568.874	18.11
569.214	18.3
569.555	18.46
569.895	18.61
570.236	18.77
570.576	18.96
570.917	19.18
571.257	19.36
571.598	19.56
571.938	19.74
572.278	19.93
572.618	20.15
572.959	20.32
573.299	20.47
573.639	20.64
573.979	20.81
574.319	20.98
574.659	21.18
574.999	21.34
575.339	21.53
575.678	21.69
576.018	21.88
576.358	22.07
576.698	22.22
577.037	22.44
577.377	22.63
577.716	22.83
578.056	23.02
578.395	23.21
578.735	23.39
579.074	23.62
579.413	23.81
579.753	24.01
580.092	24.2
580.431	24.44
580.77	24.65
581.109	24.9
581.448	25.15
581.787	25.34
582.126	25.55
582.465	25.75
582.804	25.97
583.143	26.18
583.482	26.38
583.82	26.61
584.159	26.84
584.498	27.04
584.836	27.21
585.175	27.44
585.514	27.67
585.852	27.94
586.19	28.17
586.529	28.4
586.867	28.65
587.205	28.91
587.544	29.09
587.882	29.32
588.22	29.53
588.558	29.7
588.896	29.9
589.234	30.11
589.572	30.32
589.91	30.54
590.248	30.75
590.586	30.96
590.924	31.18
591.262	31.34
591.599	31.54
591.937	31.79
592.275	31.94
592.612	32.13
592.95	32.26
593.287	32.46
593.625	32.66
593.962	32.88
594.299	33.08
594.637	33.3
594.974	33.48
595.311	33.62
595.648	33.78
595.985	33.93
596.322	34.05
596.659	34.19
596.996	34.33
597.333	34.46
597.67	34.56
598.007	34.67
598.344	34.83
598.681	34.96
599.017	35.04
599.354	35.15
599.691	35.28
600.027	35.43
600.364	35.57
600.7	35.74
601.037	35.86
601.373	36.04
601.71	36.23
602.046	36.36
602.382	36.5
602.718	36.62
603.054	36.71
603.391	36.81
603.727	36.88
604.063	36.95
604.399	37
604.735	37.1
605.071	37.19
605.406	37.26
605.742	37.37
606.078	37.52
606.414	37.69
606.749	37.83
607.085	37.93
607.421	38.04
607.756	38.15
608.092	38.25
608.427	38.3
608.762	38.37
609.098	38.45
609.433	38.48
609.768	38.55
610.104	38.64
610.439	38.7
610.774	38.76
611.109	38.85
611.444	38.97
611.779	39.04
612.114	39.1
612.449	39.2
612.784	39.25
613.118	39.32
613.453	39.32
613.788	39.34
614.123	39.42
614.457	39.5
614.792	39.55
615.126	39.55
615.461	39.61
615.795	39.57
616.13	39.61
616.464	39.69
616.798	39.75
617.132	39.77
617.467	39.83
617.801	39.91
618.135	39.96
618.469	40.01
618.803	40.01
619.137	40.05
619.471	40.07
619.805	40.12
620.139	40.12
620.472	40.19
620.806	40.23
621.14	40.28
621.473	40.31
621.807	40.32
622.141	40.4
622.474	40.43
622.808	40.51
623.141	40.57
623.474	40.69
623.808	40.78
624.141	40.86
624.474	40.96
624.807	41.05
625.141	41.09
625.474	41.08
625.807	41.15
626.14	41.2
626.473	41.23
626.806	41.28
627.138	41.31
627.471	41.31
627.804	41.34
628.137	41.39
628.469	41.43
628.802	41.45
629.135	41.44
629.467	41.5
629.8	41.49
630.132	41.5
630.465	41.52
630.797	41.48
631.129	41.5
631.461	41.47
631.794	41.41
632.126	41.37
632.458	41.41
632.79	41.43
633.122	41.47
633.454	41.48
633.786	41.49
634.118	41.54
634.45	41.59
634.781	41.62
635.113	41.61
635.445	41.57
635.777	41.56
636.108	41.59
636.44	41.62
636.771	41.64
637.103	41.63
637.434	41.62
637.765	41.66
638.097	41.61
638.428	41.65
638.759	41.73
639.09	41.81
639.422	41.83
639.753	41.81
640.084	41.8
640.415	41.83
640.746	41.81
641.077	41.75
641.407	41.76
641.738	41.74
642.069	41.75
642.4	41.77
642.73	41.82
643.061	41.81
643.392	41.75
643.722	41.8
644.053	41.82
644.383	41.86
644.713	41.83
645.044	41.89
645.374	41.84
645.704	41.84
646.034	41.79
646.365	41.84
646.695	41.93
647.025	41.99
647.355	42.1
647.685	42.14
648.015	42.2
648.344	42.26
648.674	42.31
649.004	42.28
649.334	42.3
649.663	42.36
