Data from pcis_p_h3_p1_Reflection_4.txt Node
Date: Wed Jul 12 17:51:36 ART 2017
User: rodoncho
Spectrometer: USB2E3644
Trigger mode: 4
Integration Time (sec): 6.000000E-2
Scans to average: 10
Electric dark correction enabled: true
Nonlinearity correction enabled: false
Boxcar width: 10
XAxis mode: Wavelengths
Number of Pixels in Spectrum: 2048
>>>>>Begin Spectral Data<<<<<
178.315	180
178.696	-237.5
179.076	-205.26
179.457	-156.52
179.838	-127.27
180.218	-1050
180.599	1275
180.979	290
181.36	67.24
181.74	41.25
182.121	-43.75
182.501	78.81
182.881	62.26
183.262	48.81
183.642	-0
184.022	-142.86
184.402	-620
184.783	593.33
185.163	425.93
185.543	372.09
185.923	309.52
186.303	284.42
186.683	218.87
187.063	211.9
187.443	183.89
187.823	170.59
188.203	171.81
188.583	164.95
188.963	167.63
189.343	160.27
189.723	152.84
190.102	150.14
190.482	148.68
190.862	147.1
191.242	151.65
191.621	156.25
192.001	158.61
192.38	151.78
192.76	149.32
193.14	146.9
193.519	146.69
193.898	144.03
194.278	141.65
194.657	141.43
195.037	140.85
195.416	148.24
195.795	150.49
196.175	151.86
196.554	149.69
196.933	149.32
197.312	146.78
197.692	147.83
198.071	146.06
198.45	142.98
198.829	142.95
199.208	138.42
199.587	137.06
199.966	134.71
200.345	133.06
200.724	131.21
201.103	128.13
201.482	125.46
201.86	125.65
202.239	125.29
202.618	124.41
202.997	124.25
203.375	122.41
203.754	121.03
204.133	119.94
204.511	121.75
204.89	121.57
205.269	120.96
205.647	119.49
206.026	117.8
206.404	116.31
206.782	113.08
207.161	112.79
207.539	111.54
207.918	110.39
208.296	110.73
208.674	112.98
209.052	115.71
209.431	118.2
209.809	118.34
210.187	119.08
210.565	120.36
210.943	121.29
211.321	120.78
211.699	122.26
212.077	123.14
212.455	121.42
212.833	120.51
213.211	119.48
213.589	119.47
213.967	120.68
214.345	121.88
214.722	125.86
215.1	125.88
215.478	127.18
215.855	128.56
216.233	129.71
216.611	129.18
216.988	126.63
217.366	124.49
217.743	124.77
218.121	125.97
218.498	125.71
218.876	124.77
219.253	126.16
219.631	125.08
220.008	125.93
220.385	127.6
220.762	129.56
221.14	132.94
221.517	133.42
221.894	134.87
222.271	135.26
222.648	133.39
223.025	133.3
223.402	134.53
223.78	135.61
224.157	137.12
224.533	136.28
224.91	137.77
225.287	138.22
225.664	138.12
226.041	136.03
226.418	134.2
226.795	133.83
227.171	132.38
227.548	133.06
227.925	131.41
228.301	129.98
228.678	129.15
229.055	128.45
229.431	128.12
229.808	127.1
230.184	128
230.561	129.49
230.937	130.53
231.313	130.03
231.69	129.83
232.066	126.91
232.442	127.3
232.819	127.11
233.195	126.98
233.571	127.27
233.947	129.42
234.323	131.01
234.699	132.99
235.075	133.83
235.451	133.16
235.827	135.46
236.203	136.51
236.579	137.39
236.955	137.92
237.331	139.81
237.707	144.67
238.083	147.1
238.459	151.58
238.834	157.72
239.21	161.66
239.586	166.37
239.961	173.11
240.337	176.24
240.713	181.12
241.088	185.94
241.464	188.89
241.839	191.5
242.215	198.45
242.59	211.19
242.965	238.37
243.341	293.57
243.716	363.71
244.091	484.08
244.467	631.5
244.842	860.61
245.217	1407.5
245.592	1692
245.967	2226.32
246.343	2132.91
246.718	2024.1
247.093	2293.15
247.468	2402.9
247.843	3613.04
248.218	-83400
248.593	-2845.76
248.967	-1352.42
249.342	-1043.21
249.717	-957.3
250.092	-946.67
250.467	-1164.83
250.841	-2111.25
251.216	5841.38
251.591	1356.8
251.965	801.87
252.34	628.57
252.714	558.12
253.089	482.07
253.463	477.93
253.838	482.25
254.212	494.81
254.587	545.4
254.961	660.62
255.335	1188.28
255.71	-9533.33
256.084	-836.76
256.458	-412.32
256.832	-285.27
257.206	-233.67
257.581	-209.09
257.955	-195.84
258.329	-181.38
258.703	-169.3
259.077	-159.21
259.451	-152.55
259.825	-141.17
260.199	-134.28
260.572	-131.02
260.946	-126.13
261.32	-125.65
261.694	-120.65
262.068	-117.1
262.441	-116.11
262.815	-115.62
263.189	-117.5
263.562	-124.41
263.936	-140.47
264.309	-167.92
264.683	-198.11
265.056	-221.92
265.43	-234.97
265.803	-234.36
266.176	-229.73
266.55	-222.44
266.923	-215.17
267.296	-209.99
267.67	-202.31
268.043	-189.23
268.416	-171.61
268.789	-155.83
269.162	-136.65
269.535	-127.23
269.908	-121.98
270.281	-117.95
270.654	-119.15
271.027	-121.86
271.4	-124.76
271.773	-124.19
272.146	-120.64
272.519	-115.25
272.891	-111.5
273.264	-109.84
273.637	-108.02
274.01	-108
274.382	-109.03
274.755	-107.79
275.127	-104.45
275.5	-105.41
275.872	-104.67
276.245	-106.56
276.617	-109.1
276.99	-113.32
277.362	-117.63
277.734	-118.65
278.107	-116.58
278.479	-109.14
278.851	-104.47
279.223	-100
279.596	-97.99
279.968	-98.34
280.34	-99.49
280.712	-97.16
281.084	-90.58
281.456	-82.8
281.828	-76.71
282.2	-70.45
282.572	-65.82
282.944	-64.1
283.315	-62.58
283.687	-61.84
284.059	-61.24
284.431	-60.43
284.802	-60.02
285.174	-58.3
285.546	-56.81
285.917	-56.4
286.289	-55.56
286.66	-53.93
287.032	-53.8
287.403	-52.82
287.775	-52.21
288.146	-51.43
288.518	-51.35
288.889	-51.9
289.26	-53.7
289.632	-54.7
290.003	-56.28
290.374	-58.23
290.745	-58.22
291.116	-57.4
291.487	-56.46
291.858	-55.29
292.229	-54.85
292.6	-52.97
292.971	-51.35
293.342	-49.29
293.713	-46.74
294.084	-45.12
294.455	-44.45
294.826	-42.82
295.196	-42.57
295.567	-41.99
295.938	-41.44
296.308	-41.28
296.679	-40.2
297.05	-39.35
297.42	-38.65
297.791	-37.54
298.161	-36.43
298.532	-35.73
298.902	-35.48
299.272	-34.78
299.643	-33.73
300.013	-32.74
300.383	-32.54
300.754	-32.23
301.124	-32.75
301.494	-32.98
301.864	-33.25
302.234	-33.51
302.604	-33.94
302.974	-33.52
303.344	-32.95
303.714	-32.99
304.084	-32.1
304.454	-32.02
304.824	-31.1
305.194	-30.21
305.563	-29.36
305.933	-27.88
306.303	-26.74
306.673	-25.97
307.042	-25.33
307.412	-24.49
307.781	-23.32
308.151	-22.36
308.521	-21.48
308.89	-20.65
309.259	-20
309.629	-19.24
309.998	-18.67
310.368	-18.04
310.737	-17.62
311.106	-17.3
311.475	-16.19
311.845	-15.66
312.214	-15.15
312.583	-14.9
312.952	-14.36
313.321	-14.38
313.69	-14.5
314.059	-14.65
314.428	-14.58
314.797	-14.84
315.166	-15.73
315.535	-16.24
315.904	-16.5
316.272	-16.85
316.641	-16.9
317.01	-17.19
317.379	-17.23
317.747	-17.04
318.116	-16.82
318.484	-16.47
318.853	-16.14
319.221	-16.22
319.59	-15.98
319.958	-15.94
320.327	-15.61
320.695	-15.53
321.063	-14.91
321.432	-14.36
321.8	-13.8
322.168	-12.72
322.536	-11.36
322.905	-9.99
323.273	-9.57
323.641	-9.1
324.009	-8.97
324.377	-8.56
324.745	-8.09
325.113	-7.87
325.481	-7.39
325.849	-6.85
326.216	-6.36
326.584	-5.8
326.952	-5.55
327.32	-5.19
327.687	-4.76
328.055	-4.28
328.423	-3.99
328.79	-3.73
329.158	-3.64
329.525	-3.21
329.893	-3.05
330.26	-2.96
330.628	-2.94
330.995	-2.34
331.362	-1.89
331.73	-1.45
332.097	-1.08
332.464	-0.86
332.831	-0.62
333.199	-0.36
333.566	-0.05
333.933	0.01
334.3	-0.02
334.667	0.12
335.034	0.35
335.401	0.54
335.768	0.5
336.135	0.68
336.502	0.94
336.868	1.22
337.235	1.39
337.602	1.56
337.969	1.66
338.335	1.92
338.702	1.96
339.069	2.04
339.435	2.24
339.802	2.31
340.168	2.55
340.535	2.79
340.901	2.91
341.267	3.02
341.634	3.31
342	3.66
342.366	4
342.733	4.12
343.099	4.33
343.465	4.58
343.831	4.81
344.197	4.87
344.563	4.99
344.929	5.01
345.295	5.13
345.661	5.28
346.027	5.42
346.393	5.6
346.759	5.69
347.125	5.79
347.491	5.93
347.856	6.1
348.222	6.17
348.588	6.25
348.953	6.3
349.319	6.33
349.684	6.29
350.05	6.27
350.415	6.39
350.781	6.5
351.146	6.6
351.512	6.58
351.877	6.79
352.242	6.93
352.608	7.06
352.973	7.06
353.338	7.02
353.703	7.07
354.068	7.23
354.433	7.33
354.798	7.44
355.164	7.57
355.528	7.51
355.893	7.52
356.258	7.67
356.623	7.67
356.988	7.76
357.353	7.96
357.718	8.21
358.082	8.29
358.447	8.24
358.812	8.22
359.176	8.38
359.541	8.35
359.905	8.39
360.27	8.51
360.634	8.66
360.999	8.76
361.363	8.78
361.728	8.75
362.092	8.76
362.456	8.71
362.821	8.76
363.185	8.9
363.549	9.01
363.913	9.02
364.277	9.11
364.641	9.15
365.005	9.16
365.369	9.09
365.733	9.12
366.097	9.3
366.461	9.38
366.825	9.42
367.189	9.54
367.553	9.61
367.916	9.62
368.28	9.64
368.644	9.84
369.007	9.95
369.371	10.05
369.734	10.18
370.098	10.41
370.461	10.46
370.825	10.51
371.188	10.64
371.552	10.76
371.915	10.89
372.278	11.09
372.642	11.22
373.005	11.33
373.368	11.37
373.731	11.45
374.094	11.54
374.457	11.52
374.82	11.52
375.183	11.56
375.546	11.62
375.909	11.7
376.272	11.66
376.635	11.65
376.998	11.74
377.361	11.81
377.723	11.8
378.086	11.83
378.449	11.89
378.811	11.94
379.174	11.97
379.537	11.94
379.899	11.95
380.262	11.91
380.624	11.88
380.987	11.91
381.349	11.92
381.711	11.93
382.074	11.99
382.436	12.1
382.798	12.12
383.16	12.14
383.522	12.11
383.884	12.22
384.247	12.33
384.609	12.35
384.971	12.33
385.333	12.38
385.695	12.43
386.056	12.41
386.418	12.39
386.78	12.38
387.142	12.4
387.504	12.35
387.865	12.34
388.227	12.32
388.589	12.35
388.95	12.33
389.312	12.32
389.673	12.34
390.035	12.31
390.396	12.3
390.758	12.27
391.119	12.29
391.48	12.24
391.842	12.23
392.203	12.13
392.564	12.1
392.925	12.01
393.286	11.94
393.648	11.9
394.009	11.89
394.37	11.85
394.731	11.84
395.092	11.78
395.452	11.76
395.813	11.76
396.174	11.72
396.535	11.67
396.896	11.63
397.257	11.55
397.617	11.53
397.978	11.53
398.338	11.56
398.699	11.53
399.06	11.46
399.42	11.38
399.781	11.39
400.141	11.35
400.501	11.37
400.862	11.38
401.222	11.39
401.582	11.38
401.943	11.35
402.303	11.31
402.663	11.32
403.023	11.35
403.383	11.33
403.743	11.32
404.103	11.33
404.463	11.37
404.823	11.41
405.183	11.41
405.543	11.41
405.903	11.39
406.262	11.39
406.622	11.4
406.982	11.41
407.342	11.4
407.701	11.42
408.061	11.4
408.42	11.4
408.78	11.36
409.139	11.32
409.499	11.34
409.858	11.37
410.217	11.37
410.577	11.34
410.936	11.37
411.295	11.35
411.655	11.31
412.014	11.24
412.373	11.2
412.732	11.12
413.091	11.03
413.45	10.93
413.809	10.87
414.168	10.78
414.527	10.68
414.886	10.58
415.245	10.51
415.603	10.43
415.962	10.32
416.321	10.23
416.679	10.13
417.038	10.01
417.397	9.89
417.755	9.78
418.114	9.68
418.472	9.58
418.831	9.51
419.189	9.44
419.547	9.37
419.906	9.3
420.264	9.22
420.622	9.16
420.981	9.11
421.339	9.04
421.697	8.98
422.055	8.93
422.413	8.89
422.771	8.85
423.129	8.82
423.487	8.81
423.845	8.81
424.203	8.8
424.56	8.78
424.918	8.78
425.276	8.8
425.634	8.82
425.991	8.81
426.349	8.82
426.707	8.83
427.064	8.83
427.422	8.86
427.779	8.88
428.137	8.91
428.494	8.96
428.851	9
429.209	9.05
429.566	9.09
429.923	9.12
430.28	9.1
430.637	9.13
430.995	9.15
431.352	9.15
431.709	9.21
432.066	9.25
432.423	9.29
432.78	9.31
433.137	9.33
433.493	9.36
433.85	9.4
434.207	9.41
434.564	9.43
434.92	9.46
435.277	9.48
435.634	9.5
435.99	9.51
436.347	9.54
436.703	9.55
437.06	9.58
437.416	9.62
437.773	9.64
438.129	9.63
438.485	9.63
438.841	9.64
439.198	9.63
439.554	9.61
439.91	9.61
440.266	9.6
440.622	9.56
440.978	9.54
441.334	9.48
441.69	9.44
442.046	9.37
442.402	9.29
442.758	9.2
443.113	9.12
443.469	9.04
443.825	8.96
444.181	8.9
444.536	8.84
444.892	8.78
445.247	8.74
445.603	8.69
445.958	8.65
446.314	8.6
446.669	8.54
447.025	8.49
447.38	8.42
447.735	8.35
448.09	8.3
448.446	8.25
448.801	8.21
449.156	8.16
449.511	8.13
449.866	8.11
450.221	8.12
450.576	8.11
450.931	8.11
451.286	8.1
451.641	8.09
451.995	8.09
452.35	8.08
452.705	8.07
453.06	8.08
453.414	8.1
453.769	8.11
454.123	8.11
454.478	8.13
454.832	8.15
455.187	8.17
455.541	8.18
455.896	8.19
456.25	8.2
456.604	8.23
456.958	8.27
457.313	8.28
457.667	8.31
458.021	8.37
458.375	8.43
458.729	8.51
459.083	8.59
459.437	8.65
459.791	8.72
460.145	8.78
460.499	8.86
460.852	8.92
461.206	8.99
461.56	9.09
461.914	9.19
462.267	9.29
462.621	9.42
462.974	9.59
463.328	9.78
463.681	9.97
464.035	10.16
464.388	10.35
464.742	10.53
465.095	10.7
465.448	10.86
465.801	10.99
466.155	11.1
466.508	11.22
466.861	11.31
467.214	11.41
467.567	11.54
467.92	11.62
468.273	11.73
468.626	11.84
468.979	11.91
469.332	11.98
469.684	12.06
470.037	12.12
470.39	12.16
470.743	12.22
471.095	12.26
471.448	12.33
471.8	12.36
472.153	12.37
472.505	12.36
472.858	12.33
473.21	12.32
473.562	12.26
473.915	12.19
474.267	12.13
474.619	12.04
474.971	11.92
475.324	11.83
475.676	11.71
476.028	11.6
476.38	11.49
476.732	11.36
477.084	11.22
477.436	11.07
477.787	10.91
478.139	10.72
478.491	10.57
478.843	10.38
479.195	10.18
479.546	9.94
479.898	9.66
480.249	9.39
480.601	9.14
480.952	8.97
481.304	8.86
481.655	8.79
482.007	8.72
482.358	8.67
482.709	8.62
483.061	8.57
483.412	8.53
483.763	8.48
484.114	8.45
484.465	8.42
484.816	8.41
485.167	8.41
485.518	8.41
485.869	8.42
486.22	8.44
486.571	8.46
486.922	8.5
487.272	8.57
487.623	8.66
487.974	8.79
488.324	8.92
488.675	9.04
489.025	9.14
489.376	9.25
489.726	9.36
490.077	9.48
490.427	9.6
490.778	9.74
491.128	9.92
491.478	10.12
491.828	10.34
492.179	10.57
492.529	10.8
492.879	11.04
493.229	11.27
493.579	11.48
493.929	11.69
494.279	11.91
494.629	12.16
494.979	12.47
495.328	12.81
495.678	13.23
496.028	13.6
496.378	13.96
496.727	14.3
497.077	14.62
497.426	14.92
497.776	15.21
498.125	15.48
498.475	15.75
498.824	16
499.174	16.26
499.523	16.51
499.872	16.77
500.221	17.05
500.571	17.33
500.92	17.64
501.269	17.94
501.618	18.21
501.967	18.51
502.316	18.75
502.665	19.02
503.014	19.22
503.363	19.46
503.711	19.66
504.06	19.83
504.409	19.98
504.758	20.15
505.106	20.29
505.455	20.44
505.803	20.55
506.152	20.66
506.5	20.76
506.849	20.86
507.197	20.95
507.546	21.02
507.894	21.1
508.242	21.17
508.59	21.23
508.939	21.29
509.287	21.32
509.635	21.38
509.983	21.42
510.331	21.46
510.679	21.51
511.027	21.54
511.375	21.6
511.723	21.64
512.07	21.65
512.418	21.69
512.766	21.72
513.114	21.75
513.461	21.76
513.809	21.77
514.156	21.79
514.504	21.8
514.851	21.78
515.199	21.74
515.546	21.71
515.893	21.7
516.241	21.68
516.588	21.66
516.935	21.66
517.282	21.64
517.63	21.63
517.977	21.6
518.324	21.57
518.671	21.56
519.018	21.54
519.365	21.53
519.711	21.49
520.058	21.46
520.405	21.42
520.752	21.41
521.099	21.41
521.445	21.37
521.792	21.31
522.138	21.28
522.485	21.25
522.832	21.21
523.178	21.17
523.524	21.13
523.871	21.08
524.217	21
524.563	20.92
524.91	20.84
525.256	20.75
525.602	20.66
525.948	20.58
526.294	20.52
526.64	20.48
526.986	20.45
527.332	20.42
527.678	20.39
528.024	20.35
528.37	20.3
528.716	20.26
529.061	20.24
529.407	20.2
529.753	20.14
530.098	20.09
530.444	20.04
530.789	20.01
531.135	19.98
531.48	19.95
531.826	19.92
532.171	19.89
532.516	19.83
532.862	19.78
533.207	19.74
533.552	19.7
533.897	19.66
534.242	19.62
534.587	19.58
534.932	19.57
535.277	19.54
535.622	19.5
535.967	19.49
536.312	19.44
536.657	19.41
537.001	19.36
537.346	19.32
537.691	19.25
538.035	19.17
538.38	19.09
538.724	19.02
539.069	18.96
539.413	18.9
539.758	18.88
540.102	18.85
540.446	18.81
540.791	18.77
541.135	18.73
541.479	18.7
541.823	18.65
542.167	18.6
542.512	18.56
542.856	18.51
543.2	18.46
543.543	18.42
543.887	18.38
544.231	18.36
544.575	18.32
544.919	18.28
545.262	18.25
545.606	18.2
545.95	18.15
546.293	18.11
546.637	18.07
546.98	18.02
547.324	17.97
547.667	17.92
548.011	17.85
548.354	17.78
548.697	17.71
549.04	17.68
549.384	17.61
549.727	17.55
550.07	17.51
550.413	17.47
550.756	17.42
551.099	17.36
551.442	17.33
551.785	17.27
552.128	17.21
552.47	17.16
552.813	17.12
553.156	17.06
553.499	16.99
553.841	16.95
554.184	16.89
554.526	16.85
554.869	16.78
555.211	16.74
555.554	16.72
555.896	16.68
556.238	16.61
556.581	16.56
556.923	16.51
557.265	16.45
557.607	16.35
557.949	16.3
558.291	16.23
558.633	16.16
558.975	16.1
559.317	16.03
559.659	15.94
560.001	15.9
560.343	15.85
560.685	15.79
561.026	15.66
561.368	15.59
561.71	15.48
562.051	15.43
562.393	15.39
562.734	15.31
563.076	15.22
563.417	15.16
563.759	15.1
564.1	15.03
564.441	15.01
564.782	14.95
565.124	14.87
565.465	14.84
565.806	14.79
566.147	14.76
566.488	14.7
566.829	14.65
567.17	14.6
567.511	14.55
567.851	14.52
568.192	14.51
568.533	14.48
568.874	14.46
569.214	14.42
569.555	14.34
569.895	14.29
570.236	14.26
570.576	14.21
570.917	14.17
571.257	14.13
571.598	14.06
571.938	14.05
572.278	14.02
572.618	13.99
572.959	13.93
573.299	13.85
573.639	13.84
573.979	13.78
574.319	13.75
574.659	13.69
574.999	13.64
575.339	13.58
575.678	13.51
576.018	13.43
576.358	13.37
576.698	13.32
577.037	13.28
577.377	13.22
577.716	13.15
578.056	13.08
578.395	13.03
578.735	12.96
579.074	12.88
579.413	12.8
579.753	12.71
580.092	12.69
580.431	12.66
580.77	12.61
581.109	12.58
581.448	12.53
581.787	12.49
582.126	12.41
582.465	12.37
582.804	12.34
583.143	12.32
583.482	12.25
583.82	12.2
584.159	12.17
584.498	12.11
584.836	12.1
585.175	12.08
585.514	12.01
585.852	12.03
586.19	12.02
586.529	12
586.867	12.03
587.205	11.98
587.544	11.95
587.882	11.88
588.22	11.83
588.558	11.76
588.896	11.76
589.234	11.77
589.572	11.74
589.91	11.72
590.248	11.68
590.586	11.69
590.924	11.67
591.262	11.64
591.599	11.65
591.937	11.63
592.275	11.58
592.612	11.55
592.95	11.48
593.287	11.44
593.625	11.45
593.962	11.42
594.299	11.43
594.637	11.42
594.974	11.44
595.311	11.46
595.648	11.46
595.985	11.44
596.322	11.42
596.659	11.41
596.996	11.37
597.333	11.34
597.67	11.29
598.007	11.3
598.344	11.28
598.681	11.22
599.017	11.18
599.354	11.18
599.691	11.17
600.027	11.15
600.364	11.12
600.7	11.09
601.037	11.04
601.373	11
601.71	11.01
602.046	10.98
602.382	10.97
602.718	10.97
603.054	10.95
603.391	10.91
603.727	10.89
604.063	10.89
604.399	10.88
604.735	10.86
605.071	10.85
605.406	10.83
605.742	10.85
606.078	10.87
606.414	10.85
606.749	10.85
607.085	10.84
607.421	10.83
607.756	10.81
608.092	10.79
608.427	10.74
608.762	10.69
609.098	10.63
609.433	10.57
609.768	10.5
610.104	10.46
610.439	10.46
610.774	10.44
611.109	10.41
611.444	10.4
611.779	10.4
612.114	10.37
612.449	10.32
612.784	10.25
613.118	10.19
613.453	10.13
613.788	10.04
614.123	10
614.457	9.92
614.792	9.83
615.126	9.78
615.461	9.72
615.795	9.64
616.13	9.66
616.464	9.65
616.798	9.63
617.132	9.64
617.467	9.61
617.801	9.57
618.135	9.53
618.469	9.5
618.803	9.43
619.137	9.36
619.471	9.36
619.805	9.31
620.139	9.28
620.472	9.28
620.806	9.28
621.14	9.25
621.473	9.25
621.807	9.22
622.141	9.17
622.474	9.14
622.808	9.12
623.141	9.12
623.474	9.14
623.808	9.19
624.141	9.16
624.474	9.15
624.807	9.19
625.141	9.2
625.474	9.18
625.807	9.23
626.14	9.25
626.473	9.25
626.806	9.28
627.138	9.28
627.471	9.28
627.804	9.26
628.137	9.24
628.469	9.24
628.802	9.26
629.135	9.22
629.467	9.25
629.8	9.24
630.132	9.19
630.465	9.16
630.797	9.08
631.129	9.07
631.461	9.07
631.794	9.03
632.126	8.99
632.458	8.97
632.79	8.89
633.122	8.87
633.454	8.86
633.786	8.82
634.118	8.78
634.45	8.78
634.781	8.75
635.113	8.72
635.445	8.7
635.777	8.65
636.108	8.66
636.44	8.6
636.771	8.57
637.103	8.55
637.434	8.52
637.765	8.52
638.097	8.45
638.428	8.38
638.759	8.34
639.09	8.32
639.422	8.32
639.753	8.31
640.084	8.28
640.415	8.26
640.746	8.23
641.077	8.18
641.407	8.11
641.738	8.13
642.069	8.14
642.4	8.11
642.73	8.08
643.061	8.07
643.392	8.13
643.722	8.14
644.053	8.11
644.383	8.09
644.713	8.05
645.044	8.03
645.374	8.03
645.704	7.97
646.034	7.98
646.365	8
646.695	8
647.025	8.01
647.355	7.98
647.685	7.95
648.015	8.05
648.344	8.09
648.674	8.1
649.004	8.1
649.334	8.14
649.663	8.19
