Data from pcis_c_m1_p1_Reflection_4.txt Node
Date: Wed Jul 12 17:15:14 ART 2017
User: rodoncho
Spectrometer: USB2E3644
Trigger mode: 4
Integration Time (sec): 6.000000E-2
Scans to average: 10
Electric dark correction enabled: true
Nonlinearity correction enabled: false
Boxcar width: 10
XAxis mode: Wavelengths
Number of Pixels in Spectrum: 2048
>>>>>Begin Spectral Data<<<<<
178.315	207.23
178.696	354.55
179.076	239.56
179.457	193.02
179.838	306.67
180.218	500
180.599	-59.46
180.979	36
181.36	-3400
181.74	-156.25
182.121	-377.78
182.501	71.37
182.881	67.01
183.262	45.03
183.642	-10.99
184.022	-244.44
184.402	1163.64
184.783	352.94
185.163	388.41
185.543	300.9
185.923	291.34
186.303	358.97
186.683	378.63
187.063	302.67
187.443	299.51
187.823	287.45
188.203	236.61
188.583	235.37
188.963	210.84
189.343	194.82
189.723	181.16
190.102	168.94
190.482	153.73
190.862	156.15
191.242	151.76
191.621	150.48
192.001	152.93
192.38	145.97
192.76	140.87
193.14	137.06
193.519	132.16
193.898	128.79
194.278	123.45
194.657	121.31
195.037	121.07
195.416	117.59
195.795	115.84
196.175	117.1
196.554	114.54
196.933	113.79
197.312	113.4
197.692	113.29
198.071	114.83
198.45	117.18
198.829	117.18
199.208	117.35
199.587	119.08
199.966	116.78
200.345	116.55
200.724	117.04
201.103	117.43
201.482	117.89
201.86	118.49
202.239	120.17
202.618	117.99
202.997	119.15
203.375	119.74
203.754	120.7
204.133	120.32
204.511	120.32
204.89	120.16
205.269	119.82
205.647	118.87
206.026	119.73
206.404	120.02
206.782	118.35
207.161	116.21
207.539	113.39
207.918	113.94
208.296	114.22
208.674	113.96
209.052	112.09
209.431	111.59
209.809	110.74
210.187	110.23
210.565	110.54
210.943	108.93
211.321	108.79
211.699	108.3
212.077	108.39
212.455	109.17
212.833	110.45
213.211	111.1
213.589	113.07
213.967	112.32
214.345	109.63
214.722	109.92
215.1	110.51
215.478	109.19
215.855	109.71
216.233	109.82
216.611	111.25
216.988	112.84
217.366	113.88
217.743	114.11
218.121	113.97
218.498	115.7
218.876	115.77
219.253	115.07
219.631	114.98
220.008	114.98
220.385	114.38
220.762	113.26
221.14	113.08
221.517	111.9
221.894	111.7
222.271	112.71
222.648	112.58
223.025	114.18
223.402	116.04
223.78	116.14
224.157	116.19
224.533	114.92
224.91	114.85
225.287	115.59
225.664	116.1
226.041	115.89
226.418	115.14
226.795	115.39
227.171	114.24
227.548	113.76
227.925	115.47
228.301	117.33
228.678	119.26
229.055	118.87
229.431	118.09
229.808	117.42
230.184	118.17
230.561	118.64
230.937	116.01
231.313	115.11
231.69	115.33
232.066	116.74
232.442	118.07
232.819	118.71
233.195	118.38
233.571	117.8
233.947	118.21
234.323	118.23
234.699	118.3
235.075	120.91
235.451	123.01
235.827	122.66
236.203	122.57
236.579	121.74
236.955	123.41
237.331	125.69
237.707	127.52
238.083	129.27
238.459	132.87
238.834	140.77
239.21	147.09
239.586	151.36
239.961	156.05
240.337	160.55
240.713	163.48
241.088	164.82
241.464	168.28
241.839	173.76
242.215	181.68
242.59	195.3
242.965	222.84
243.341	268.82
243.716	339.24
244.091	460.31
244.467	609.11
244.842	875.35
245.217	1457.28
245.592	2225.9
245.967	3903.8
246.343	2831.19
246.718	1822.49
247.093	1843.64
247.468	2041.61
247.843	2053.69
248.218	3225.26
248.593	-23600
248.967	-2221.9
249.342	-1482.13
249.717	-1401.81
250.092	-1348.47
250.467	-1782.46
250.841	33977.78
251.216	1323.61
251.591	702.03
251.965	490.57
252.34	426.95
252.714	378.4
253.089	342.18
253.463	338.3
253.838	338.59
254.212	353.13
254.587	375.36
254.961	410.21
255.335	524.42
255.71	1033.44
256.084	-3253.47
256.458	-581.56
256.832	-329.51
257.206	-253.21
257.581	-223.57
257.955	-207.81
258.329	-195.47
258.703	-175.04
259.077	-164.1
259.451	-154.75
259.825	-143.88
260.199	-135.97
260.572	-131.84
260.946	-125.27
261.32	-123.22
261.694	-120.65
262.068	-117.24
262.441	-113.71
262.815	-109.45
263.189	-108.49
263.562	-114.95
263.936	-133.56
264.309	-165.19
264.683	-209.16
265.056	-241.51
265.43	-243.56
265.803	-234.87
266.176	-224.36
266.55	-228.05
266.923	-215.64
267.296	-205.84
267.67	-194.84
268.043	-179.58
268.416	-160.45
268.789	-142.16
269.162	-124.21
269.535	-111.86
269.908	-105.29
270.281	-100.04
270.654	-101.16
271.027	-105.11
271.4	-107.31
271.773	-107.83
272.146	-106.09
272.519	-100.71
272.891	-97.57
273.264	-98.73
273.637	-98.95
274.01	-100.33
274.382	-100.54
274.755	-99.17
275.127	-98.53
275.5	-98.96
275.872	-98.96
276.245	-99.53
276.617	-104.2
276.99	-110.96
277.362	-114.52
277.734	-114.15
278.107	-112.48
278.479	-105.61
278.851	-99.18
279.223	-93.54
279.596	-90.07
279.968	-88.87
280.34	-88.81
280.712	-86.05
281.084	-78.57
281.456	-70.42
281.828	-63.66
282.2	-56.87
282.572	-53.05
282.944	-50.32
283.315	-49.08
283.687	-47.73
284.059	-46.75
284.431	-45.25
284.802	-44.33
285.174	-42.7
285.546	-41.28
285.917	-40.65
286.289	-39.38
286.66	-38.21
287.032	-38.05
287.403	-37.12
287.775	-36.53
288.146	-36.02
288.518	-36
288.889	-36.55
289.26	-38.11
289.632	-39.79
290.003	-41.65
290.374	-43.3
290.745	-43.48
291.116	-42.97
291.487	-41.8
291.858	-39.8
292.229	-38.57
292.6	-36.16
292.971	-34.54
293.342	-32
293.713	-29.13
294.084	-27.94
294.455	-26.92
294.826	-25.53
295.196	-25.75
295.567	-25.14
295.938	-23.96
296.308	-23.12
296.679	-22.28
297.05	-21.48
297.42	-20.42
297.791	-19.23
298.161	-18.03
298.532	-17.34
298.902	-16.58
299.272	-15.73
299.643	-15.56
300.013	-15.3
300.383	-14.9
300.754	-14.26
301.124	-14.09
301.494	-14.31
301.864	-13.86
302.234	-13.84
302.604	-13.96
302.974	-13.34
303.344	-13.04
303.714	-13.39
304.084	-13.18
304.454	-12.75
304.824	-11.66
305.194	-10.55
305.563	-9.6
305.933	-8.69
306.303	-7.43
306.673	-6.5
307.042	-5.79
307.412	-4.63
307.781	-3.08
308.151	-2.21
308.521	-1.51
308.89	-1.22
309.259	-0.61
309.629	-0.22
309.998	0.08
310.368	0.34
310.737	0.79
311.106	1.62
311.475	2.37
311.845	2.64
312.214	3.02
312.583	3.23
312.952	3.85
313.321	4.07
313.69	4.49
314.059	4.79
314.428	4.81
314.797	4.6
315.166	4.02
315.535	3.44
315.904	3.49
316.272	3.27
316.641	3.13
317.01	2.97
317.379	2.72
317.747	3.06
318.116	3.75
318.484	4.49
318.853	4.72
319.221	5.22
319.59	6.03
319.958	6.59
320.327	6.92
320.695	7.07
321.063	7.48
321.432	7.85
321.8	7.78
322.168	8.75
322.536	9.56
322.905	10.61
323.273	11.46
323.641	11.95
324.009	12
324.377	12.4
324.745	12.65
325.113	13.21
325.481	13.83
325.849	14.38
326.216	14.86
326.584	15.36
326.952	15.5
327.32	15.78
327.687	16.05
328.055	16.42
328.423	16.75
328.79	16.87
329.158	17.06
329.525	17.62
329.893	17.77
330.26	17.91
330.628	17.87
330.995	18.09
331.362	18.54
331.73	19.32
332.097	19.79
332.464	20.38
332.831	20.65
333.199	20.84
333.566	21.06
333.933	21.07
334.3	21.13
334.667	21.52
335.034	21.86
335.401	22.11
335.768	22.36
336.135	22.32
336.502	22.58
336.868	22.91
337.235	23.16
337.602	23.55
337.969	24.04
338.335	24.56
338.702	24.7
339.069	24.8
339.435	24.97
339.802	25.1
340.168	25.26
340.535	25.54
340.901	25.63
341.267	25.83
341.634	26.13
342	26.23
342.366	26.48
342.733	26.59
343.099	26.78
343.465	27.01
343.831	27.5
344.197	27.67
344.563	27.8
344.929	27.86
345.295	27.93
345.661	28.09
346.027	28.17
346.393	28.45
346.759	28.59
347.125	28.67
347.491	28.9
347.856	29.08
348.222	29.24
348.588	29.44
348.953	29.43
349.319	29.55
349.684	29.76
350.05	29.83
350.415	29.93
350.781	30.15
351.146	30.37
351.512	30.39
351.877	30.54
352.242	30.58
352.608	30.82
352.973	30.98
353.338	31.03
353.703	31.24
354.068	31.42
354.433	31.68
354.798	31.9
355.164	32.17
355.528	32.25
355.893	32.42
356.258	32.64
356.623	32.98
356.988	33.19
357.353	33.41
357.718	33.67
358.082	33.86
358.447	33.83
358.812	33.81
359.176	34.05
359.541	34.21
359.905	34.48
360.27	34.62
360.634	34.71
360.999	34.84
361.363	35.06
361.728	35.16
362.092	35.3
362.456	35.4
362.821	35.42
363.185	35.55
363.549	35.66
363.913	35.85
364.277	35.9
364.641	35.96
365.005	36.16
365.369	36.22
365.733	36.42
366.097	36.64
366.461	36.81
366.825	36.84
367.189	36.9
367.553	37.07
367.916	37.2
368.28	37.31
368.644	37.61
369.007	37.62
369.371	37.78
369.734	37.82
370.098	38.03
370.461	38.2
370.825	38.35
371.188	38.58
371.552	38.69
371.915	38.82
372.278	39
372.642	39.07
373.005	39.27
373.368	39.33
373.731	39.48
374.094	39.66
374.457	39.75
374.82	39.91
375.183	40.01
375.546	40.14
375.909	40.34
376.272	40.35
376.635	40.45
376.998	40.45
377.361	40.51
377.723	40.55
378.086	40.62
378.449	40.72
378.811	40.78
379.174	40.83
379.537	40.99
379.899	41.12
380.262	41.3
380.624	41.34
380.987	41.47
381.349	41.59
381.711	41.71
382.074	41.86
382.436	41.92
382.798	42.04
383.16	42.13
383.522	42.15
383.884	42.23
384.247	42.35
384.609	42.48
384.971	42.62
385.333	42.71
385.695	42.8
386.056	42.87
386.418	42.97
386.78	42.99
387.142	42.92
387.504	42.96
387.865	42.88
388.227	42.94
388.589	42.96
388.95	42.98
389.312	42.91
389.673	42.94
390.035	43.1
390.396	43.08
390.758	43.11
391.119	43.19
391.48	43.22
391.842	43.25
392.203	43.25
392.564	43.3
392.925	43.38
393.286	43.41
393.648	43.47
394.009	43.45
394.37	43.55
394.731	43.62
395.092	43.65
395.452	43.73
395.813	43.76
396.174	43.82
396.535	43.9
396.896	43.97
397.257	44.01
397.617	44.02
397.978	44.09
398.338	44.14
398.699	44.17
399.06	44.19
399.42	44.18
399.781	44.22
400.141	44.21
400.501	44.14
400.862	44.14
401.222	44.11
401.582	44.15
401.943	44.08
402.303	44.13
402.663	44.08
403.023	44.1
403.383	44.08
403.743	44.07
404.103	44.04
404.463	44.05
404.823	44.03
405.183	43.98
405.543	43.93
405.903	43.9
406.262	43.82
406.622	43.82
406.982	43.83
407.342	43.79
407.701	43.76
408.061	43.74
408.42	43.73
408.78	43.76
409.139	43.67
409.499	43.7
409.858	43.66
410.217	43.66
410.577	43.63
410.936	43.61
411.295	43.59
411.655	43.54
412.014	43.52
412.373	43.51
412.732	43.43
413.091	43.36
413.45	43.3
413.809	43.24
414.168	43.14
414.527	43.05
414.886	42.94
415.245	42.84
415.603	42.71
415.962	42.6
416.321	42.46
416.679	42.34
417.038	42.21
417.397	42.09
417.755	41.98
418.114	41.87
418.472	41.78
418.831	41.71
419.189	41.59
419.547	41.46
419.906	41.34
420.264	41.22
420.622	41.12
420.981	40.99
421.339	40.86
421.697	40.76
422.055	40.65
422.413	40.58
422.771	40.48
423.129	40.4
423.487	40.32
423.845	40.25
424.203	40.18
424.56	40.09
424.918	39.99
425.276	39.88
425.634	39.77
425.991	39.65
426.349	39.5
426.707	39.41
427.064	39.31
427.422	39.19
427.779	39.06
428.137	38.9
428.494	38.76
428.851	38.64
429.209	38.46
429.566	38.3
429.923	38.1
430.28	37.93
430.637	37.77
430.995	37.62
431.352	37.47
431.709	37.34
432.066	37.24
432.423	37.12
432.78	37.01
433.137	36.9
433.493	36.75
433.85	36.65
434.207	36.46
434.564	36.31
434.92	36.16
435.277	36
435.634	35.83
435.99	35.65
436.347	35.46
436.703	35.26
437.06	35.06
437.416	34.91
437.773	34.73
438.129	34.59
438.485	34.43
438.841	34.26
439.198	34.12
439.554	33.96
439.91	33.83
440.266	33.67
440.622	33.52
440.978	33.35
441.334	33.17
441.69	32.99
442.046	32.76
442.402	32.54
442.758	32.3
443.113	32.1
443.469	31.9
443.825	31.71
444.181	31.56
444.536	31.39
444.892	31.19
445.247	31.04
445.603	30.91
445.958	30.75
446.314	30.65
446.669	30.54
447.025	30.41
447.38	30.28
447.735	30.17
448.09	30.03
448.446	29.9
448.801	29.72
449.156	29.59
449.511	29.47
449.866	29.33
450.221	29.2
450.576	29.02
450.931	28.86
451.286	28.69
451.641	28.49
451.995	28.32
452.35	28.16
452.705	28.01
453.06	27.83
453.414	27.74
453.769	27.57
454.123	27.38
454.478	27.2
454.832	27
455.187	26.79
455.541	26.55
455.896	26.3
456.25	26.08
456.604	25.86
456.958	25.65
457.313	25.48
457.667	25.33
458.021	25.19
458.375	25.08
458.729	24.95
459.083	24.85
459.437	24.75
459.791	24.65
460.145	24.53
460.499	24.44
460.852	24.32
461.206	24.22
461.56	24.09
461.914	24
462.267	23.9
462.621	23.8
462.974	23.7
463.328	23.6
463.681	23.46
464.035	23.34
464.388	23.22
464.742	23.1
465.095	22.96
465.448	22.85
465.801	22.71
466.155	22.58
466.508	22.47
466.861	22.36
467.214	22.25
467.567	22.17
467.92	22.06
468.273	21.96
468.626	21.84
468.979	21.75
469.332	21.62
469.684	21.49
470.037	21.36
470.39	21.24
470.743	21.14
471.095	21.04
471.448	20.93
471.8	20.85
472.153	20.73
472.505	20.62
472.858	20.49
473.21	20.37
473.562	20.22
473.915	20.06
474.267	19.93
474.619	19.8
474.971	19.65
475.324	19.52
475.676	19.38
476.028	19.27
476.38	19.14
476.732	19.05
477.084	18.95
477.436	18.83
477.787	18.71
478.139	18.58
478.491	18.46
478.843	18.3
479.195	18.13
479.546	17.95
479.898	17.72
480.249	17.52
480.601	17.35
480.952	17.24
481.304	17.16
481.655	17.06
482.007	16.99
482.358	16.92
482.709	16.86
483.061	16.78
483.412	16.71
483.763	16.63
484.114	16.54
484.465	16.46
484.816	16.4
485.167	16.33
485.518	16.28
485.869	16.23
486.22	16.19
486.571	16.16
486.922	16.12
487.272	16.07
487.623	15.98
487.974	15.86
488.324	15.74
488.675	15.63
489.025	15.56
489.376	15.51
489.726	15.47
490.077	15.42
490.427	15.38
490.778	15.34
491.128	15.3
491.478	15.26
491.828	15.24
492.179	15.2
492.529	15.16
492.879	15.11
493.229	15.07
493.579	15.01
493.929	14.96
494.279	14.89
494.629	14.84
494.979	14.79
495.328	14.75
495.678	14.72
496.028	14.69
496.378	14.65
496.727	14.6
497.077	14.53
497.426	14.49
497.776	14.43
498.125	14.39
498.475	14.36
498.824	14.32
499.174	14.26
499.523	14.21
499.872	14.17
500.221	14.13
500.571	14.07
500.92	14.03
501.269	13.98
501.618	13.93
501.967	13.88
502.316	13.83
502.665	13.8
503.014	13.76
503.363	13.72
503.711	13.66
504.06	13.6
504.409	13.54
504.758	13.48
505.106	13.45
505.455	13.4
505.803	13.33
506.152	13.26
506.5	13.19
506.849	13.15
507.197	13.1
507.546	13.05
507.894	13.02
508.242	12.99
508.59	12.94
508.939	12.92
509.287	12.89
509.635	12.86
509.983	12.82
510.331	12.79
510.679	12.74
511.027	12.71
511.375	12.66
511.723	12.64
512.07	12.61
512.418	12.58
512.766	12.54
513.114	12.52
513.461	12.51
513.809	12.49
514.156	12.43
514.504	12.39
514.851	12.35
515.199	12.28
515.546	12.22
515.893	12.16
516.241	12.11
516.588	12.08
516.935	12.05
517.282	12.02
517.63	11.97
517.977	11.95
518.324	11.93
518.671	11.9
519.018	11.87
519.365	11.83
519.711	11.8
520.058	11.75
520.405	11.72
520.752	11.66
521.099	11.62
521.445	11.6
521.792	11.56
522.138	11.52
522.485	11.49
522.832	11.46
523.178	11.43
523.524	11.38
523.871	11.34
524.217	11.3
524.563	11.22
524.91	11.14
525.256	11.05
525.602	10.97
525.948	10.92
526.294	10.88
526.64	10.85
526.986	10.81
527.332	10.79
527.678	10.78
528.024	10.78
528.37	10.77
528.716	10.75
529.061	10.73
529.407	10.7
529.753	10.66
530.098	10.63
530.444	10.61
530.789	10.59
531.135	10.57
531.48	10.55
531.826	10.55
532.171	10.56
532.516	10.55
532.862	10.54
533.207	10.53
533.552	10.52
533.897	10.5
534.242	10.5
534.587	10.48
534.932	10.48
535.277	10.46
535.622	10.44
535.967	10.44
536.312	10.43
536.657	10.42
537.001	10.41
537.346	10.39
537.691	10.34
538.035	10.29
538.38	10.25
538.724	10.21
539.069	10.18
539.413	10.15
539.758	10.11
540.102	10.09
540.446	10.07
540.791	10.06
541.135	10.05
541.479	10.03
541.823	10.02
542.167	9.98
542.512	9.96
542.856	9.93
543.2	9.89
543.543	9.86
543.887	9.84
544.231	9.83
544.575	9.82
544.919	9.83
545.262	9.84
545.606	9.83
545.95	9.83
546.293	9.82
546.637	9.78
546.98	9.8
547.324	9.77
547.667	9.75
548.011	9.72
548.354	9.68
548.697	9.66
549.04	9.62
549.384	9.61
549.727	9.58
550.07	9.58
550.413	9.57
550.756	9.56
551.099	9.54
551.442	9.5
551.785	9.51
552.128	9.46
552.47	9.42
552.813	9.38
553.156	9.34
553.499	9.34
553.841	9.33
554.184	9.31
554.526	9.31
554.869	9.28
555.211	9.26
555.554	9.24
555.896	9.21
556.238	9.21
556.581	9.18
556.923	9.14
557.265	9.11
557.607	9.06
557.949	9.03
558.291	9
558.633	8.96
558.975	8.9
559.317	8.86
559.659	8.84
560.001	8.82
560.343	8.8
560.685	8.75
561.026	8.69
561.368	8.63
561.71	8.56
562.051	8.54
562.393	8.53
562.734	8.47
563.076	8.41
563.417	8.36
563.759	8.32
564.1	8.3
564.441	8.27
564.782	8.23
565.124	8.2
565.465	8.16
565.806	8.14
566.147	8.11
566.488	8.09
566.829	8.06
567.17	8.01
567.511	7.95
567.851	7.91
568.192	7.87
568.533	7.87
568.874	7.86
569.214	7.83
569.555	7.78
569.895	7.75
570.236	7.75
570.576	7.71
570.917	7.69
571.257	7.65
571.598	7.6
571.938	7.57
572.278	7.53
572.618	7.51
572.959	7.47
573.299	7.42
573.639	7.37
573.979	7.36
574.319	7.33
574.659	7.31
574.999	7.29
575.339	7.28
575.678	7.21
576.018	7.14
576.358	7.07
576.698	7.02
577.037	7
577.377	6.95
577.716	6.9
578.056	6.87
578.395	6.83
578.735	6.81
579.074	6.77
579.413	6.71
579.753	6.64
580.092	6.62
580.431	6.59
580.77	6.59
581.109	6.54
581.448	6.51
581.787	6.49
582.126	6.45
582.465	6.41
582.804	6.37
583.143	6.36
583.482	6.35
583.82	6.32
584.159	6.29
584.498	6.24
584.836	6.22
585.175	6.19
585.514	6.16
585.852	6.14
586.19	6.11
586.529	6.12
586.867	6.13
587.205	6.11
587.544	6.13
587.882	6.08
588.22	6.06
588.558	6.06
588.896	5.99
589.234	5.98
589.572	5.96
589.91	5.96
590.248	5.95
590.586	5.95
590.924	5.93
591.262	5.92
591.599	5.93
591.937	5.93
592.275	5.9
592.612	5.87
592.95	5.85
593.287	5.87
593.625	5.89
593.962	5.91
594.299	5.93
594.637	5.9
594.974	5.92
595.311	5.92
595.648	5.91
595.985	5.93
596.322	5.92
596.659	5.9
596.996	5.89
597.333	5.84
597.67	5.81
598.007	5.79
598.344	5.76
598.681	5.71
599.017	5.67
599.354	5.66
599.691	5.65
600.027	5.63
600.364	5.59
600.7	5.55
601.037	5.51
601.373	5.48
601.71	5.49
602.046	5.47
602.382	5.46
602.718	5.44
603.054	5.42
603.391	5.4
603.727	5.39
604.063	5.38
604.399	5.37
604.735	5.36
605.071	5.36
605.406	5.35
605.742	5.35
606.078	5.37
606.414	5.39
606.749	5.39
607.085	5.38
607.421	5.36
607.756	5.32
608.092	5.28
608.427	5.19
608.762	5.11
609.098	5.04
609.433	4.97
609.768	4.93
610.104	4.91
610.439	4.9
610.774	4.87
611.109	4.83
611.444	4.81
611.779	4.79
612.114	4.76
612.449	4.72
612.784	4.68
613.118	4.63
613.453	4.53
613.788	4.43
614.123	4.34
614.457	4.26
614.792	4.22
615.126	4.16
615.461	4.15
615.795	4.13
616.13	4.14
616.464	4.13
616.798	4.11
617.132	4.09
617.467	4.05
617.801	4.01
618.135	4.01
618.469	4
618.803	3.97
619.137	3.94
619.471	3.93
619.805	3.91
620.139	3.85
620.472	3.88
620.806	3.87
621.14	3.86
621.473	3.87
621.807	3.82
622.141	3.81
622.474	3.78
622.808	3.76
623.141	3.75
623.474	3.77
623.808	3.8
624.141	3.81
624.474	3.81
624.807	3.86
625.141	3.87
625.474	3.85
625.807	3.84
626.14	3.84
626.473	3.85
626.806	3.85
627.138	3.84
627.471	3.8
627.804	3.82
628.137	3.82
628.469	3.8
628.802	3.8
629.135	3.74
629.467	3.74
629.8	3.7
630.132	3.66
630.465	3.65
630.797	3.61
631.129	3.61
631.461	3.6
631.794	3.55
632.126	3.51
632.458	3.5
632.79	3.48
633.122	3.46
633.454	3.48
633.786	3.48
634.118	3.48
634.45	3.48
634.781	3.44
635.113	3.39
635.445	3.37
635.777	3.35
636.108	3.4
636.44	3.36
636.771	3.33
637.103	3.29
637.434	3.23
637.765	3.18
638.097	3.1
638.428	3.06
638.759	3.04
639.09	2.99
639.422	2.99
639.753	2.99
640.084	2.99
640.415	2.93
640.746	2.87
641.077	2.84
641.407	2.79
641.738	2.78
642.069	2.77
642.4	2.75
642.73	2.76
643.061	2.7
643.392	2.71
643.722	2.75
644.053	2.75
644.383	2.76
644.713	2.75
645.044	2.73
645.374	2.69
645.704	2.67
646.034	2.71
646.365	2.66
646.695	2.63
647.025	2.57
647.355	2.56
647.685	2.61
648.015	2.67
648.344	2.73
648.674	2.75
649.004	2.79
649.334	2.83
649.663	2.86
649.993	2.96
650.323	2.94
