Data from pcis_p_h3_p1_Reflection_1.txt Node
Date: Wed Jul 12 17:51:15 ART 2017
User: rodoncho
Spectrometer: USB2E3644
Trigger mode: 4
Integration Time (sec): 6.000000E-2
Scans to average: 10
Electric dark correction enabled: true
Nonlinearity correction enabled: false
Boxcar width: 10
XAxis mode: Wavelengths
Number of Pixels in Spectrum: 2048
>>>>>Begin Spectral Data<<<<<
178.315	-649.33
178.696	495.83
179.076	429.82
179.457	297.1
179.838	166.67
180.218	66.67
180.599	116.67
180.979	440
181.36	28.74
181.74	37.92
182.121	16.67
182.501	83.62
182.881	55.35
183.262	31.75
183.642	11.38
184.022	-158.73
184.402	-533.33
184.783	615.56
185.163	408.64
185.543	312.4
185.923	256.08
186.303	230.3
186.683	162.58
187.063	148.68
187.443	141.83
187.823	136.08
188.203	127.84
188.583	121.18
188.963	121.3
189.343	116.21
189.723	113.23
190.102	112.35
190.482	112.26
190.862	109.91
191.242	115.53
191.621	121.18
192.001	121.42
192.38	118.84
192.76	117.19
193.14	116.35
193.519	117.42
193.898	118.26
194.278	118.04
194.657	119.11
195.037	119.04
195.416	121.4
195.795	121.37
196.175	120.15
196.554	119.06
196.933	116.79
197.312	115.79
197.692	117.14
198.071	117.83
198.45	115.06
198.829	115.88
199.208	113.02
199.587	112.92
199.966	112.98
200.345	112.76
200.724	112.18
201.103	110.89
201.482	108.85
201.86	107.58
202.239	106.88
202.618	106.29
202.997	105.67
203.375	102.8
203.754	101.39
204.133	102.52
204.511	104.79
204.89	106.71
205.269	106.96
205.647	107.41
206.026	106.55
206.404	106.69
206.782	105.28
207.161	105.66
207.539	105.66
207.918	105.05
208.296	106.75
208.674	108.89
209.052	109.54
209.431	111.23
209.809	110.68
210.187	111.16
210.565	111.42
210.943	112.26
211.321	113.4
211.699	116.13
212.077	117.39
212.455	115.62
212.833	114.03
213.211	113.19
213.589	113.38
213.967	114.28
214.345	114.41
214.722	116.24
215.1	116.34
215.478	117.36
215.855	118.69
216.233	119.3
216.611	117.28
216.988	116.35
217.366	114.39
217.743	114.57
218.121	115.04
218.498	114.92
218.876	115.17
219.253	116.47
219.631	114.75
220.008	115.21
220.385	116.73
220.762	118.85
221.14	120.5
221.517	119.37
221.894	119.61
222.271	119.74
222.648	117.28
223.025	116.64
223.402	116.74
223.78	117.28
224.157	117.93
224.533	119.05
224.91	120.51
225.287	122.18
225.664	123.44
226.041	123.11
226.418	122.94
226.795	121.33
227.171	120.39
227.548	121.52
227.925	120.86
228.301	120.85
228.678	119.65
229.055	119.25
229.431	119.62
229.808	119.26
230.184	120.49
230.561	123.22
230.937	123.23
231.313	122.42
231.69	122.87
232.066	121.18
232.442	121.41
232.819	121.64
233.195	121.18
233.571	120.67
233.947	121.8
234.323	123.04
234.699	124.84
235.075	124.36
235.451	123.58
235.827	123.91
236.203	123.23
236.579	124.07
236.955	124.32
237.331	126.1
237.707	130.45
238.083	133.18
238.459	137.01
238.834	142.91
239.21	147.71
239.586	152.19
239.961	157.36
240.337	159.54
240.713	163.34
241.088	167.6
241.464	171.02
241.839	174.85
242.215	181.97
242.59	194.97
242.965	221.97
243.341	273.86
243.716	341.92
244.091	461.27
244.467	604.15
244.842	829.97
245.217	1351.11
245.592	1633.33
245.967	2147.81
246.343	2061.18
246.718	1964.26
247.093	2204.57
247.468	2307.73
247.843	3463.77
248.218	-79666.67
248.593	-2678.53
248.967	-1265.59
249.342	-971.81
249.717	-892.32
250.092	-880.19
250.467	-1086.44
250.841	-1965.42
251.216	5442.53
251.591	1272.27
251.965	746.42
252.34	584.37
252.714	520.89
253.089	456.4
253.463	456.8
253.838	460.94
254.212	474.74
254.587	522.96
254.961	645.3
255.335	1156.78
255.71	-9201.85
256.084	-807.52
256.458	-405.25
256.832	-283.59
257.206	-234.58
257.581	-209.65
257.955	-197.47
258.329	-183.13
258.703	-170.93
259.077	-161.56
259.451	-155.17
259.825	-145.17
260.199	-138.37
260.572	-133.93
260.946	-127.63
261.32	-125.6
261.694	-120.99
262.068	-117.89
262.441	-117.5
262.815	-115.94
263.189	-117.3
263.562	-125.41
263.936	-141.87
264.309	-168.07
264.683	-198.28
265.056	-222.96
265.43	-236.51
265.803	-234.12
266.176	-225.51
266.55	-219.47
266.923	-211.65
267.296	-204.27
267.67	-194.69
268.043	-181.56
268.416	-166.36
268.789	-150.22
269.162	-130.79
269.535	-120.56
269.908	-114.31
270.281	-110.35
270.654	-110.97
271.027	-113.77
271.4	-115.62
271.773	-115.51
272.146	-114.05
272.519	-108.99
272.891	-104.27
273.264	-102.45
273.637	-100.62
274.01	-101.64
274.382	-101.31
274.755	-100.16
275.127	-97.16
275.5	-98.6
275.872	-98.74
276.245	-98.93
276.617	-101.28
276.99	-105.89
277.362	-110.68
277.734	-111.57
278.107	-109.52
278.479	-103.16
278.851	-99.2
279.223	-95.77
279.596	-93.61
279.968	-92.72
280.34	-92.86
280.712	-91.74
281.084	-87.4
281.456	-80.82
281.828	-75.07
282.2	-69.34
282.572	-64.14
282.944	-62.55
283.315	-60.44
283.687	-59.41
284.059	-59.44
284.431	-58.97
284.802	-58.26
285.174	-56.31
285.546	-55.36
285.917	-55.24
286.289	-53.95
286.66	-52.46
287.032	-51.85
287.403	-51.13
287.775	-50.37
288.146	-49.94
288.518	-49.65
288.889	-49.15
289.26	-50.24
289.632	-50.63
290.003	-51.62
290.374	-53.8
290.745	-54.79
291.116	-55.14
291.487	-54.22
291.858	-52.75
292.229	-51.85
292.6	-50.23
292.971	-48.95
293.342	-46.87
293.713	-44.05
294.084	-42.39
294.455	-41.71
294.826	-40.47
295.196	-40.2
295.567	-39.97
295.938	-39.89
296.308	-39.83
296.679	-39.1
297.05	-38.56
297.42	-38.46
297.791	-38.06
298.161	-36.73
298.532	-35.49
298.902	-34.55
299.272	-33.53
299.643	-32.28
300.013	-31.68
300.383	-31.46
300.754	-30.91
301.124	-31.13
301.494	-31.53
301.864	-31.9
302.234	-31.88
302.604	-32.1
302.974	-31.84
303.344	-31.57
303.714	-30.95
304.084	-30.31
304.454	-30.07
304.824	-29.01
305.194	-28.24
305.563	-27.35
305.933	-26.31
306.303	-25.05
306.673	-24.37
307.042	-24.14
307.412	-23.75
307.781	-22.74
308.151	-21.86
308.521	-21.59
308.89	-20.97
309.259	-20.4
309.629	-20.01
309.998	-19.77
310.368	-19.5
310.737	-19.35
311.106	-18.91
311.475	-18.31
311.845	-17.79
312.214	-17.29
312.583	-17.31
312.952	-17.08
313.321	-17.09
313.69	-17.13
314.059	-17.51
314.428	-17.88
314.797	-18.16
315.166	-18.91
315.535	-19.42
315.904	-20.05
316.272	-20.23
316.641	-20.56
317.01	-20.61
317.379	-20.86
317.747	-20.59
318.116	-20.47
318.484	-19.86
318.853	-19.31
319.221	-19.22
319.59	-18.7
319.958	-18.53
320.327	-17.94
320.695	-17.21
321.063	-16.54
321.432	-16.1
321.8	-15.49
322.168	-14.3
322.536	-13.21
322.905	-12.15
323.273	-11.48
323.641	-10.7
324.009	-10.51
324.377	-10.21
324.745	-9.98
325.113	-9.52
325.481	-8.97
325.849	-8.46
326.216	-8.16
326.584	-8.02
326.952	-7.7
327.32	-7.49
327.687	-6.96
328.055	-6.63
328.423	-6.54
328.79	-6.39
329.158	-6.29
329.525	-5.7
329.893	-5.44
330.26	-5.2
330.628	-5.15
330.995	-4.81
331.362	-4.45
331.73	-3.7
332.097	-3.12
332.464	-2.83
332.831	-2.46
333.199	-2.17
333.566	-1.92
333.933	-1.81
334.3	-1.56
334.667	-1.18
335.034	-0.94
335.401	-0.91
335.768	-0.82
336.135	-0.57
336.502	-0.32
336.868	-0.06
337.235	-0.1
337.602	0.1
337.969	0.06
338.335	0.25
338.702	0.33
339.069	0.44
339.435	0.49
339.802	0.56
340.168	0.87
340.535	1.04
340.901	1.07
341.267	1.34
341.634	1.69
342	1.87
342.366	1.96
342.733	1.99
343.099	2.12
343.465	2.29
343.831	2.3
344.197	2.33
344.563	2.39
344.929	2.54
345.295	2.72
345.661	3.06
346.027	3.32
346.393	3.44
346.759	3.32
347.125	3.23
347.491	3.21
347.856	3.16
348.222	3.18
348.588	3.28
348.953	3.19
349.319	3.23
349.684	3.42
350.05	3.55
350.415	3.91
350.781	4.06
351.146	4.18
351.512	4.34
351.877	4.49
352.242	4.53
352.608	4.62
352.973	4.56
353.338	4.49
353.703	4.49
354.068	4.62
354.433	4.78
354.798	5
355.164	5.15
355.528	5.26
355.893	5.37
356.258	5.41
356.623	5.55
356.988	5.64
357.353	5.74
357.718	5.9
358.082	5.84
358.447	5.84
358.812	5.9
359.176	6.02
359.541	6.09
359.905	6.28
360.27	6.29
360.634	6.34
360.999	6.37
361.363	6.49
361.728	6.58
362.092	6.68
362.456	6.69
362.821	6.75
363.185	6.79
363.549	6.88
363.913	6.97
364.277	7.04
364.641	7.12
365.005	7.14
365.369	7.15
365.733	7.23
366.097	7.35
366.461	7.47
366.825	7.48
367.189	7.54
367.553	7.63
367.916	7.82
368.28	7.98
368.644	8.17
369.007	8.22
369.371	8.29
369.734	8.35
370.098	8.53
370.461	8.65
370.825	8.77
371.188	8.91
371.552	9
371.915	9.1
372.278	9.2
372.642	9.32
373.005	9.36
373.368	9.37
373.731	9.43
374.094	9.46
374.457	9.49
374.82	9.54
375.183	9.58
375.546	9.62
375.909	9.64
376.272	9.64
376.635	9.66
376.998	9.68
377.361	9.72
377.723	9.72
378.086	9.73
378.449	9.8
378.811	9.86
379.174	9.92
379.537	9.96
379.899	10.03
380.262	10.04
380.624	10.07
380.987	10.12
381.349	10.16
381.711	10.25
382.074	10.33
382.436	10.4
382.798	10.37
383.16	10.35
383.522	10.4
383.884	10.45
384.247	10.56
384.609	10.64
384.971	10.69
385.333	10.73
385.695	10.78
386.056	10.8
386.418	10.72
386.78	10.74
387.142	10.7
387.504	10.67
387.865	10.67
388.227	10.64
388.589	10.7
388.95	10.7
389.312	10.65
389.673	10.63
390.035	10.61
390.396	10.63
390.758	10.64
391.119	10.65
391.48	10.61
391.842	10.56
392.203	10.49
392.564	10.47
392.925	10.46
393.286	10.43
393.648	10.41
394.009	10.44
394.37	10.42
394.731	10.41
395.092	10.35
395.452	10.34
395.813	10.4
396.174	10.39
396.535	10.4
396.896	10.39
397.257	10.41
397.617	10.42
397.978	10.45
398.338	10.5
398.699	10.49
399.06	10.47
399.42	10.42
399.781	10.42
400.141	10.36
400.501	10.35
400.862	10.34
401.222	10.33
401.582	10.33
401.943	10.33
402.303	10.33
402.663	10.34
403.023	10.34
403.383	10.31
403.743	10.3
404.103	10.31
404.463	10.31
404.823	10.32
405.183	10.34
405.543	10.32
405.903	10.3
406.262	10.29
406.622	10.34
406.982	10.37
407.342	10.37
407.701	10.44
408.061	10.42
408.42	10.43
408.78	10.45
409.139	10.43
409.499	10.43
409.858	10.49
410.217	10.54
410.577	10.54
410.936	10.54
411.295	10.53
411.655	10.47
412.014	10.43
412.373	10.38
412.732	10.33
413.091	10.27
413.45	10.2
413.809	10.13
414.168	10.03
414.527	9.94
414.886	9.86
415.245	9.75
415.603	9.69
415.962	9.57
416.321	9.46
416.679	9.35
417.038	9.25
417.397	9.12
417.755	9
418.114	8.91
418.472	8.83
418.831	8.77
419.189	8.72
419.547	8.64
419.906	8.56
420.264	8.45
420.622	8.37
420.981	8.3
421.339	8.25
421.697	8.2
422.055	8.16
422.413	8.12
422.771	8.1
423.129	8.08
423.487	8.08
423.845	8.07
424.203	8.07
424.56	8.08
424.918	8.09
425.276	8.1
425.634	8.12
425.991	8.11
426.349	8.11
426.707	8.13
427.064	8.16
427.422	8.2
427.779	8.25
428.137	8.31
428.494	8.38
428.851	8.41
429.209	8.46
429.566	8.51
429.923	8.55
430.28	8.56
430.637	8.58
430.995	8.6
431.352	8.63
431.709	8.67
432.066	8.71
432.423	8.74
432.78	8.79
433.137	8.81
433.493	8.86
433.85	8.91
434.207	8.89
434.564	8.9
434.92	8.93
435.277	8.93
435.634	8.95
435.99	8.96
436.347	8.97
436.703	8.96
437.06	8.97
437.416	8.98
437.773	8.99
438.129	9
438.485	9.01
438.841	9
439.198	8.97
439.554	8.93
439.91	8.93
440.266	8.89
440.622	8.87
440.978	8.85
441.334	8.79
441.69	8.75
442.046	8.71
442.402	8.63
442.758	8.55
443.113	8.49
443.469	8.41
443.825	8.37
444.181	8.33
444.536	8.29
444.892	8.25
445.247	8.19
445.603	8.15
445.958	8.1
446.314	8.05
446.669	8.02
447.025	8
447.38	7.96
447.735	7.93
448.09	7.89
448.446	7.84
448.801	7.81
449.156	7.77
449.511	7.76
449.866	7.76
450.221	7.79
450.576	7.79
450.931	7.79
451.286	7.78
451.641	7.77
451.995	7.76
452.35	7.77
452.705	7.79
453.06	7.8
453.414	7.83
453.769	7.85
454.123	7.86
454.478	7.85
454.832	7.84
455.187	7.83
455.541	7.84
455.896	7.84
456.25	7.86
456.604	7.87
456.958	7.89
457.313	7.91
457.667	7.94
458.021	7.99
458.375	8.05
458.729	8.13
459.083	8.19
459.437	8.25
459.791	8.31
460.145	8.36
460.499	8.44
460.852	8.49
461.206	8.58
461.56	8.64
461.914	8.73
462.267	8.82
462.621	8.93
462.974	9.07
463.328	9.25
463.681	9.4
464.035	9.59
464.388	9.77
464.742	9.92
465.095	10.07
465.448	10.19
465.801	10.29
466.155	10.39
466.508	10.49
466.861	10.57
467.214	10.66
467.567	10.77
467.92	10.82
468.273	10.9
468.626	10.96
468.979	11.05
469.332	11.09
469.684	11.12
470.037	11.18
470.39	11.21
470.743	11.25
471.095	11.32
471.448	11.35
471.8	11.38
472.153	11.4
472.505	11.4
472.858	11.39
473.21	11.38
473.562	11.32
473.915	11.27
474.267	11.2
474.619	11.13
474.971	11.02
475.324	10.96
475.676	10.87
476.028	10.79
476.38	10.68
476.732	10.6
477.084	10.51
477.436	10.38
477.787	10.26
478.139	10.11
478.491	9.95
478.843	9.78
479.195	9.6
479.546	9.37
479.898	9.08
480.249	8.78
480.601	8.55
480.952	8.41
481.304	8.31
481.655	8.24
482.007	8.18
482.358	8.14
482.709	8.08
483.061	8.03
483.412	7.98
483.763	7.94
484.114	7.9
484.465	7.87
484.816	7.85
485.167	7.84
485.518	7.84
485.869	7.86
486.22	7.87
486.571	7.9
486.922	7.94
487.272	8
487.623	8.1
487.974	8.23
488.324	8.34
488.675	8.44
489.025	8.53
489.376	8.63
489.726	8.72
490.077	8.83
490.427	8.95
490.778	9.08
491.128	9.25
491.478	9.43
491.828	9.63
492.179	9.85
492.529	10.06
492.879	10.28
493.229	10.47
493.579	10.67
493.929	10.85
494.279	11.04
494.629	11.26
494.979	11.54
495.328	11.84
495.678	12.21
496.028	12.55
496.378	12.88
496.727	13.17
497.077	13.45
497.426	13.72
497.776	13.97
498.125	14.19
498.475	14.43
498.824	14.64
499.174	14.84
499.523	15.05
499.872	15.27
500.221	15.49
500.571	15.73
500.92	15.98
501.269	16.22
501.618	16.47
501.967	16.69
502.316	16.91
502.665	17.13
503.014	17.31
503.363	17.5
503.711	17.66
504.06	17.82
504.409	17.95
504.758	18.06
505.106	18.15
505.455	18.26
505.803	18.35
506.152	18.45
506.5	18.54
506.849	18.62
507.197	18.72
507.546	18.8
507.894	18.86
508.242	18.92
508.59	18.95
508.939	18.99
509.287	19.01
509.635	19.03
509.983	19.07
510.331	19.1
510.679	19.14
511.027	19.18
511.375	19.19
511.723	19.25
512.07	19.28
512.418	19.35
512.766	19.37
513.114	19.4
513.461	19.42
513.809	19.42
514.156	19.42
514.504	19.39
514.851	19.37
515.199	19.34
515.546	19.29
515.893	19.28
516.241	19.27
516.588	19.26
516.935	19.24
517.282	19.24
517.63	19.2
517.977	19.18
518.324	19.15
518.671	19.16
519.018	19.15
519.365	19.11
519.711	19.06
520.058	19.04
520.405	19.04
520.752	19.03
521.099	19.03
521.445	19
521.792	18.96
522.138	18.92
522.485	18.9
522.832	18.9
523.178	18.88
523.524	18.83
523.871	18.8
524.217	18.74
524.563	18.65
524.91	18.54
525.256	18.41
525.602	18.31
525.948	18.21
526.294	18.13
526.64	18.09
526.986	18.07
527.332	18.03
527.678	18.01
528.024	17.97
528.37	17.95
528.716	17.92
529.061	17.9
529.407	17.87
529.753	17.81
530.098	17.74
530.444	17.7
530.789	17.66
531.135	17.63
531.48	17.62
531.826	17.6
532.171	17.6
532.516	17.6
532.862	17.59
533.207	17.59
533.552	17.58
533.897	17.55
534.242	17.51
534.587	17.49
534.932	17.48
535.277	17.45
535.622	17.43
535.967	17.42
536.312	17.39
536.657	17.37
537.001	17.38
537.346	17.37
537.691	17.29
538.035	17.23
538.38	17.16
538.724	17.1
539.069	17.05
539.413	16.99
539.758	16.94
540.102	16.91
540.446	16.89
540.791	16.88
541.135	16.87
541.479	16.85
541.823	16.83
542.167	16.8
542.512	16.79
542.856	16.75
543.2	16.72
543.543	16.69
543.887	16.66
544.231	16.64
544.575	16.63
544.919	16.65
545.262	16.65
545.606	16.65
545.95	16.65
546.293	16.66
546.637	16.68
546.98	16.69
547.324	16.67
547.667	16.63
548.011	16.57
548.354	16.52
548.697	16.5
549.04	16.43
549.384	16.36
549.727	16.32
550.07	16.27
550.413	16.23
550.756	16.2
551.099	16.16
551.442	16.1
551.785	16.04
552.128	15.97
552.47	15.9
552.813	15.86
553.156	15.79
553.499	15.71
553.841	15.62
554.184	15.56
554.526	15.52
554.869	15.46
555.211	15.41
555.554	15.34
555.896	15.28
556.238	15.24
556.581	15.19
556.923	15.12
557.265	15.05
557.607	15.01
557.949	14.96
558.291	14.9
558.633	14.84
558.975	14.78
559.317	14.74
559.659	14.69
560.001	14.64
560.343	14.61
560.685	14.58
561.026	14.55
561.368	14.44
561.71	14.34
562.051	14.3
562.393	14.28
562.734	14.24
563.076	14.15
563.417	14.09
563.759	14.02
564.1	13.95
564.441	13.94
564.782	13.86
565.124	13.8
565.465	13.71
565.806	13.7
566.147	13.66
566.488	13.61
566.829	13.58
567.17	13.51
567.511	13.44
567.851	13.37
568.192	13.31
568.533	13.3
568.874	13.24
569.214	13.18
569.555	13.12
569.895	13.08
570.236	13.04
570.576	12.99
570.917	12.97
571.257	12.97
571.598	12.92
571.938	12.89
572.278	12.84
572.618	12.84
572.959	12.77
573.299	12.72
573.639	12.68
573.979	12.63
574.319	12.61
574.659	12.57
574.999	12.55
575.339	12.51
575.678	12.47
576.018	12.43
576.358	12.39
576.698	12.35
577.037	12.31
577.377	12.26
577.716	12.21
578.056	12.16
578.395	12.09
578.735	12.03
579.074	11.97
579.413	11.91
579.753	11.87
580.092	11.87
580.431	11.84
580.77	11.79
581.109	11.77
581.448	11.71
581.787	11.67
582.126	11.6
582.465	11.55
582.804	11.52
583.143	11.52
583.482	11.49
583.82	11.44
584.159	11.42
584.498	11.37
584.836	11.33
585.175	11.29
585.514	11.2
585.852	11.18
586.19	11.12
586.529	11.07
586.867	11.07
587.205	11.01
587.544	10.99
587.882	10.97
588.22	10.95
588.558	10.9
588.896	10.9
589.234	10.92
589.572	10.92
589.91	10.86
590.248	10.82
590.586	10.8
590.924	10.78
591.262	10.73
591.599	10.71
591.937	10.72
592.275	10.69
592.612	10.7
592.95	10.69
593.287	10.7
593.625	10.73
593.962	10.71
594.299	10.68
594.637	10.68
594.974	10.67
595.311	10.65
595.648	10.67
595.985	10.64
596.322	10.61
596.659	10.6
596.996	10.61
597.333	10.57
597.67	10.53
598.007	10.5
598.344	10.5
598.681	10.5
599.017	10.42
599.354	10.39
599.691	10.36
600.027	10.33
600.364	10.3
600.7	10.25
601.037	10.23
601.373	10.22
601.71	10.18
602.046	10.18
602.382	10.18
602.718	10.16
603.054	10.13
603.391	10.12
603.727	10.08
604.063	10.05
604.399	10.07
604.735	10.09
605.071	10.09
605.406	10.09
605.742	10.1
606.078	10.12
606.414	10.14
606.749	10.16
607.085	10.15
607.421	10.18
607.756	10.21
608.092	10.24
608.427	10.24
608.762	10.25
609.098	10.24
609.433	10.24
609.768	10.2
610.104	10.23
610.439	10.22
610.774	10.24
611.109	10.23
611.444	10.21
611.779	10.18
612.114	10.13
612.449	10.09
612.784	10.06
613.118	10.08
613.453	10.01
613.788	9.94
614.123	9.88
614.457	9.81
614.792	9.72
615.126	9.6
615.461	9.54
615.795	9.45
616.13	9.36
616.464	9.29
616.798	9.23
617.132	9.15
617.467	9.14
617.801	9.07
618.135	9.07
618.469	9.03
618.803	8.96
619.137	8.95
619.471	8.93
619.805	8.88
620.139	8.86
620.472	8.87
620.806	8.87
621.14	8.83
621.473	8.78
621.807	8.74
622.141	8.68
622.474	8.63
622.808	8.6
623.141	8.61
623.474	8.58
623.808	8.63
624.141	8.67
624.474	8.62
624.807	8.61
625.141	8.61
625.474	8.59
625.807	8.66
626.14	8.67
626.473	8.66
626.806	8.67
627.138	8.66
627.471	8.65
627.804	8.63
628.137	8.64
628.469	8.67
628.802	8.66
629.135	8.67
629.467	8.65
629.8	8.65
630.132	8.67
630.465	8.7
630.797	8.65
631.129	8.62
631.461	8.66
631.794	8.66
632.126	8.59
632.458	8.58
632.79	8.57
633.122	8.56
633.454	8.57
633.786	8.55
634.118	8.5
634.45	8.47
634.781	8.46
635.113	8.43
635.445	8.36
635.777	8.36
636.108	8.37
636.44	8.36
636.771	8.32
637.103	8.25
637.434	8.19
637.765	8.2
638.097	8.14
638.428	8.04
638.759	7.99
639.09	7.99
639.422	7.98
639.753	7.9
640.084	7.87
640.415	7.84
640.746	7.84
641.077	7.79
641.407	7.75
641.738	7.71
642.069	7.71
642.4	7.71
642.73	7.71
643.061	7.7
643.392	7.68
643.722	7.74
644.053	7.73
644.383	7.73
644.713	7.68
645.044	7.67
645.374	7.65
645.704	7.63
646.034	7.64
646.365	7.61
646.695	7.59
647.025	7.59
647.355	7.56
647.685	7.54
648.015	7.61
648.344	7.65
648.674	7.68
649.004	7.71
649.334	7.75
649.663	7.75
649.993	7.69
