Data from pcis_c_m2_p5_Reflection_5.txt Node
Date: Wed Jul 12 17:36:13 ART 2017
User: rodoncho
Spectrometer: USB2E3644
Trigger mode: 4
Integration Time (sec): 6.000000E-2
Scans to average: 10
Electric dark correction enabled: true
Nonlinearity correction enabled: false
Boxcar width: 10
XAxis mode: Wavelengths
Number of Pixels in Spectrum: 2048
>>>>>Begin Spectral Data<<<<<
178.315	-2.56
178.696	3.33
179.076	61.79
179.457	66.67
179.838	16.67
180.218	-60.61
180.599	316.67
180.979	71.87
181.36	58.97
181.74	-110.26
182.121	163.89
182.501	99.27
182.881	100.54
183.262	151.19
183.642	-266.67
184.022	12.7
184.402	61.33
184.783	68.46
185.163	76.78
185.543	85.6
185.923	89.52
186.303	94.98
186.683	90.72
187.063	93.15
187.443	97.33
187.823	98.13
188.203	99.56
188.583	101.43
188.963	99.62
189.343	98.64
189.723	94.68
190.102	93.43
190.482	97.46
190.862	102.39
191.242	104.81
191.621	105.78
192.001	104.22
192.38	108.61
192.76	111.42
193.14	110.71
193.519	111.32
193.898	108.85
194.278	105
194.657	103.74
195.037	102.44
195.416	101.09
195.795	101.56
196.175	100.56
196.554	101.01
196.933	103.06
197.312	104.97
197.692	107.92
198.071	108.91
198.45	108.05
198.829	106.71
199.208	108.02
199.587	108.81
199.966	109.54
200.345	109.21
200.724	107.62
201.103	108.61
201.482	107.61
201.86	108.61
202.239	108.96
202.618	107.67
202.997	108.67
203.375	110.17
203.754	110.05
204.133	110.43
204.511	108.42
204.89	106.94
205.269	105.29
205.647	103.62
206.026	102.3
206.404	102.69
206.782	102.41
207.161	101.33
207.539	101.14
207.918	100.96
208.296	100.62
208.674	102.47
209.052	102.95
209.431	104.86
209.809	105.65
210.187	107.55
210.565	108.73
210.943	108.85
211.321	107.28
211.699	106.92
212.077	107.66
212.455	108.67
212.833	109.62
213.211	109.15
213.589	109.11
213.967	110
214.345	108.73
214.722	108.43
215.1	108.57
215.478	109.78
215.855	109.66
216.233	110.82
216.611	109.84
216.988	108.86
217.366	108.13
217.743	106.77
218.121	106.03
218.498	106.02
218.876	106.36
219.253	106.81
219.631	106.78
220.008	107.05
220.385	108.77
220.762	109.37
221.14	109.33
221.517	110.28
221.894	111.23
222.271	112.07
222.648	113.2
223.025	113.47
223.402	112.28
223.78	113.47
224.157	112.9
224.533	114.45
224.91	115.93
225.287	115.13
225.664	115.07
226.041	115.53
226.418	116.72
226.795	116.34
227.171	116.56
227.548	116.85
227.925	117.3
228.301	117.37
228.678	117.2
229.055	118.36
229.431	118.62
229.808	119.44
230.184	119.69
230.561	120.4
230.937	120.61
231.313	120.59
231.69	118.95
232.066	118.04
232.442	116.77
232.819	116.35
233.195	118.21
233.571	118.36
233.947	117.71
234.323	117.58
234.699	118.67
235.075	119.34
235.451	119.18
235.827	119.2
236.203	118.58
236.579	119.19
236.955	121.72
237.331	124
237.707	126
238.083	129.73
238.459	133.58
238.834	140.28
239.21	146.64
239.586	154.72
239.961	162.48
240.337	165.85
240.713	169.63
241.088	171.2
241.464	176.15
241.839	182.44
242.215	188.67
242.59	201.84
242.965	236.66
243.341	309.2
243.716	443.18
244.091	699.86
244.467	1184.43
244.842	2373.04
245.217	40191.67
245.592	-5972.84
245.967	-4147.86
246.343	-6028.4
246.718	-81633.33
247.093	26844.44
247.468	-52922.22
247.843	-19870.83
248.218	-2610.93
248.593	-1231.52
248.967	-782.42
249.342	-651.1
249.717	-610.6
250.092	-555.32
250.467	-582.36
250.841	-872.79
251.216	-3536.23
251.591	1790.94
251.965	817.89
252.34	622.95
252.714	520.14
253.089	449.51
253.463	437.22
253.838	446.99
254.212	478.31
254.587	552.37
254.961	720.46
255.335	1316.93
255.71	-3493.06
256.084	-613.85
256.458	-335.91
256.832	-234.57
257.206	-192.83
257.581	-171.94
257.955	-161.9
258.329	-154.4
258.703	-141.32
259.077	-131.69
259.451	-123.78
259.825	-115.72
260.199	-111.14
260.572	-107.65
260.946	-103.15
261.32	-101.06
261.694	-97.81
262.068	-96.29
262.441	-94.77
262.815	-93.77
263.189	-94.41
263.562	-99.45
263.936	-110.36
264.309	-129.3
264.683	-154.07
265.056	-171.25
265.43	-180.27
265.803	-179.26
266.176	-173.39
266.55	-173.82
266.923	-171.19
267.296	-164.44
267.67	-155.7
268.043	-145.02
268.416	-133.93
268.789	-120.95
269.162	-108.48
269.535	-100.57
269.908	-95.4
270.281	-93.47
270.654	-93.88
271.027	-96.93
271.4	-98.52
271.773	-100.3
272.146	-97.58
272.519	-93.16
272.891	-89.83
273.264	-89.07
273.637	-87.91
274.01	-88
274.382	-87.2
274.755	-85.12
275.127	-84.4
275.5	-84.75
275.872	-85.49
276.245	-86.06
276.617	-87.6
276.99	-91.5
277.362	-94.58
277.734	-94.43
278.107	-93.32
278.479	-88.76
278.851	-84.6
279.223	-80.26
279.596	-77.99
279.968	-77.37
280.34	-76.81
280.712	-75.76
281.084	-72.03
281.456	-67.57
281.828	-62.74
282.2	-57.84
282.572	-54.52
282.944	-51.96
283.315	-50.21
283.687	-48.75
284.059	-48
284.431	-47.3
284.802	-46.45
285.174	-45.07
285.546	-43.94
285.917	-43.05
286.289	-42.21
286.66	-41.38
287.032	-41.53
287.403	-40.8
287.775	-40.37
288.146	-40.14
288.518	-39.73
288.889	-39.71
289.26	-40.6
289.632	-41.45
290.003	-42.9
290.374	-44.1
290.745	-44.43
291.116	-44.75
291.487	-43.86
291.858	-43.04
292.229	-43.01
292.6	-41.27
292.971	-39.87
293.342	-38
293.713	-36.1
294.084	-34.72
294.455	-33.76
294.826	-32.95
295.196	-33.28
295.567	-33.63
295.938	-33.35
296.308	-33.11
296.679	-32.51
297.05	-31.78
297.42	-31.18
297.791	-29.95
298.161	-29.02
298.532	-28.42
298.902	-28.05
299.272	-27.9
299.643	-27.44
300.013	-26.88
300.383	-26.77
300.754	-26.76
301.124	-27.52
301.494	-27.92
301.864	-28.24
302.234	-28.34
302.604	-28.68
302.974	-28.15
303.344	-27.77
303.714	-27.56
304.084	-27.35
304.454	-27.11
304.824	-26.28
305.194	-25.84
305.563	-25.57
305.933	-24.63
306.303	-23.73
306.673	-22.67
307.042	-21.87
307.412	-20.9
307.781	-19.68
308.151	-18.83
308.521	-18.24
308.89	-17.89
309.259	-17.68
309.629	-17.47
309.998	-17.3
310.368	-16.97
310.737	-16.51
311.106	-15.82
311.475	-15.13
311.845	-14.69
312.214	-14.1
312.583	-13.95
312.952	-13.54
313.321	-13.58
313.69	-13.85
314.059	-14.19
314.428	-14.46
314.797	-14.72
315.166	-15.64
315.535	-16.55
315.904	-17.11
316.272	-17.51
316.641	-17.53
317.01	-17.37
317.379	-17.31
317.747	-17.28
318.116	-16.68
318.484	-16.2
318.853	-15.9
319.221	-16.11
319.59	-15.99
319.958	-15.98
320.327	-15.93
320.695	-15.78
321.063	-15.34
321.432	-14.94
321.8	-14.34
322.168	-13.41
322.536	-12.48
322.905	-11.41
323.273	-10.58
323.641	-10.29
324.009	-9.89
324.377	-9.42
324.745	-9.26
325.113	-8.91
325.481	-8.29
325.849	-7.9
326.216	-7.58
326.584	-7.23
326.952	-6.81
327.32	-6.49
327.687	-6.22
328.055	-5.8
328.423	-5.69
328.79	-5.6
329.158	-5.38
329.525	-5.02
329.893	-4.94
330.26	-4.92
330.628	-5.07
330.995	-5.05
331.362	-4.82
331.73	-4.49
332.097	-4.12
332.464	-3.77
332.831	-3.6
333.199	-3.53
333.566	-3.52
333.933	-3.7
334.3	-3.78
334.667	-3.54
335.034	-3.31
335.401	-3.09
335.768	-3.09
336.135	-2.92
336.502	-2.71
336.868	-2.27
337.235	-2.11
337.602	-1.88
337.969	-1.79
338.335	-1.45
338.702	-1.14
339.069	-0.93
339.435	-0.72
339.802	-0.72
340.168	-0.66
340.535	-0.44
340.901	-0.35
341.267	-0.12
341.634	0.31
342	0.59
342.366	0.77
342.733	0.99
343.099	1.17
343.465	1.36
343.831	1.53
344.197	1.71
344.563	1.66
344.929	1.8
345.295	1.96
345.661	2.18
346.027	2.36
346.393	2.42
346.759	2.4
347.125	2.35
347.491	2.51
347.856	2.67
348.222	2.61
348.588	2.76
348.953	2.82
349.319	2.91
349.684	3.03
350.05	3.18
350.415	3.32
350.781	3.52
351.146	3.66
351.512	3.75
351.877	3.87
352.242	3.96
352.608	3.95
352.973	3.89
353.338	3.96
353.703	4
354.068	4.13
354.433	4.36
354.798	4.62
355.164	4.78
355.528	4.84
355.893	5.03
356.258	5.12
356.623	5.25
356.988	5.3
357.353	5.44
357.718	5.49
358.082	5.48
358.447	5.39
358.812	5.53
359.176	5.58
359.541	5.65
359.905	5.7
360.27	5.87
360.634	5.99
360.999	6.04
361.363	6.2
361.728	6.22
362.092	6.31
362.456	6.27
362.821	6.27
363.185	6.41
363.549	6.49
363.913	6.57
364.277	6.67
364.641	6.82
365.005	6.87
365.369	6.95
365.733	7.03
366.097	7.22
366.461	7.24
366.825	7.37
367.189	7.51
367.553	7.68
367.916	7.74
368.28	7.88
368.644	8.09
369.007	8.19
369.371	8.34
369.734	8.32
370.098	8.44
370.461	8.52
370.825	8.56
371.188	8.65
371.552	8.76
371.915	8.84
372.278	8.88
372.642	9.01
373.005	9.1
373.368	9.13
373.731	9.15
374.094	9.22
374.457	9.26
374.82	9.28
375.183	9.28
375.546	9.37
375.909	9.4
376.272	9.38
376.635	9.35
376.998	9.35
377.361	9.46
377.723	9.52
378.086	9.58
378.449	9.63
378.811	9.74
379.174	9.77
379.537	9.79
379.899	9.91
380.262	9.95
380.624	9.98
380.987	10.08
381.349	10.15
381.711	10.18
382.074	10.19
382.436	10.27
382.798	10.29
383.16	10.29
383.522	10.34
383.884	10.38
384.247	10.48
384.609	10.54
384.971	10.59
385.333	10.62
385.695	10.65
386.056	10.66
386.418	10.61
386.78	10.64
387.142	10.62
387.504	10.6
387.865	10.58
388.227	10.59
388.589	10.6
388.95	10.58
389.312	10.57
389.673	10.64
390.035	10.63
390.396	10.69
390.758	10.67
391.119	10.63
391.48	10.65
391.842	10.65
392.203	10.66
392.564	10.66
392.925	10.64
393.286	10.61
393.648	10.59
394.009	10.59
394.37	10.57
394.731	10.58
395.092	10.53
395.452	10.54
395.813	10.55
396.174	10.54
396.535	10.54
396.896	10.59
397.257	10.56
397.617	10.57
397.978	10.58
398.338	10.63
398.699	10.66
399.06	10.66
399.42	10.6
399.781	10.57
400.141	10.53
400.501	10.53
400.862	10.52
401.222	10.58
401.582	10.57
401.943	10.57
402.303	10.57
402.663	10.59
403.023	10.56
403.383	10.53
403.743	10.52
404.103	10.55
404.463	10.55
404.823	10.58
405.183	10.55
405.543	10.5
405.903	10.46
406.262	10.43
406.622	10.4
406.982	10.44
407.342	10.43
407.701	10.45
408.061	10.42
408.42	10.43
408.78	10.4
409.139	10.41
409.499	10.41
409.858	10.42
410.217	10.42
410.577	10.45
410.936	10.43
411.295	10.41
411.655	10.36
412.014	10.3
412.373	10.24
412.732	10.17
413.091	10.16
413.45	10.11
413.809	10.09
414.168	10
414.527	9.96
414.886	9.91
415.245	9.84
415.603	9.78
415.962	9.69
416.321	9.61
416.679	9.52
417.038	9.44
417.397	9.35
417.755	9.28
418.114	9.19
418.472	9.13
418.831	9.09
419.189	9.05
419.547	9
419.906	8.96
420.264	8.92
420.622	8.85
420.981	8.8
421.339	8.75
421.697	8.72
422.055	8.67
422.413	8.63
422.771	8.62
423.129	8.61
423.487	8.61
423.845	8.61
424.203	8.61
424.56	8.61
424.918	8.63
425.276	8.64
425.634	8.65
425.991	8.67
426.349	8.66
426.707	8.67
427.064	8.66
427.422	8.67
427.779	8.7
428.137	8.73
428.494	8.77
428.851	8.79
429.209	8.82
429.566	8.81
429.923	8.79
430.28	8.77
430.637	8.77
430.995	8.74
431.352	8.69
431.709	8.67
432.066	8.68
432.423	8.64
432.78	8.62
433.137	8.59
433.493	8.56
433.85	8.55
434.207	8.5
434.564	8.47
434.92	8.46
435.277	8.41
435.634	8.38
435.99	8.32
436.347	8.28
436.703	8.2
437.06	8.17
437.416	8.16
437.773	8.13
438.129	8.08
438.485	8.06
438.841	8.06
439.198	8.05
439.554	8.01
439.91	8
440.266	7.99
440.622	8
440.978	7.98
441.334	7.95
441.69	7.93
442.046	7.91
442.402	7.86
442.758	7.83
443.113	7.8
443.469	7.78
443.825	7.77
444.181	7.78
444.536	7.8
444.892	7.8
445.247	7.78
445.603	7.79
445.958	7.8
446.314	7.8
446.669	7.8
447.025	7.79
447.38	7.79
447.735	7.77
448.09	7.75
448.446	7.77
448.801	7.76
449.156	7.76
449.511	7.77
449.866	7.8
450.221	7.84
450.576	7.87
450.931	7.91
451.286	7.9
451.641	7.93
451.995	7.91
452.35	7.93
452.705	7.95
453.06	7.95
453.414	7.95
453.769	7.94
454.123	7.92
454.478	7.9
454.832	7.87
455.187	7.85
455.541	7.83
455.896	7.76
456.25	7.72
456.604	7.69
456.958	7.65
457.313	7.63
457.667	7.62
458.021	7.59
458.375	7.59
458.729	7.6
459.083	7.59
459.437	7.58
459.791	7.57
460.145	7.56
460.499	7.55
460.852	7.54
461.206	7.54
461.56	7.53
461.914	7.54
462.267	7.53
462.621	7.54
462.974	7.54
463.328	7.58
463.681	7.6
464.035	7.64
464.388	7.67
464.742	7.67
465.095	7.66
465.448	7.68
465.801	7.67
466.155	7.65
466.508	7.64
466.861	7.65
467.214	7.64
467.567	7.63
467.92	7.61
468.273	7.61
468.626	7.61
468.979	7.61
469.332	7.59
469.684	7.56
470.037	7.57
470.39	7.57
470.743	7.57
471.095	7.58
471.448	7.57
471.8	7.58
472.153	7.61
472.505	7.62
472.858	7.61
473.21	7.61
473.562	7.6
473.915	7.6
474.267	7.58
474.619	7.58
474.971	7.59
475.324	7.58
475.676	7.58
476.028	7.57
476.38	7.56
476.732	7.56
477.084	7.58
477.436	7.56
477.787	7.54
478.139	7.52
478.491	7.51
478.843	7.48
479.195	7.45
479.546	7.37
479.898	7.29
480.249	7.2
480.601	7.14
480.952	7.11
481.304	7.06
481.655	7.04
482.007	7.02
482.358	7.01
482.709	7
483.061	6.99
483.412	6.97
483.763	6.96
484.114	6.94
484.465	6.93
484.816	6.92
485.167	6.91
485.518	6.9
485.869	6.89
486.22	6.9
486.571	6.9
486.922	6.9
487.272	6.93
487.623	6.94
487.974	6.95
488.324	6.96
488.675	6.98
489.025	6.99
489.376	7
489.726	7.01
490.077	7.02
490.427	7.04
490.778	7.07
491.128	7.1
491.478	7.13
491.828	7.16
492.179	7.19
492.529	7.22
492.879	7.24
493.229	7.26
493.579	7.26
493.929	7.27
494.279	7.28
494.629	7.28
494.979	7.31
495.328	7.36
495.678	7.41
496.028	7.45
496.378	7.46
496.727	7.49
497.077	7.51
497.426	7.54
497.776	7.53
498.125	7.53
498.475	7.53
498.824	7.55
499.174	7.55
499.523	7.55
499.872	7.56
500.221	7.57
500.571	7.6
500.92	7.61
501.269	7.64
501.618	7.65
501.967	7.66
502.316	7.67
502.665	7.68
503.014	7.69
503.363	7.67
503.711	7.7
504.06	7.69
504.409	7.67
504.758	7.66
505.106	7.66
505.455	7.66
505.803	7.66
506.152	7.64
506.5	7.65
506.849	7.65
507.197	7.65
507.546	7.66
507.894	7.66
508.242	7.67
508.59	7.66
508.939	7.65
509.287	7.66
509.635	7.68
509.983	7.69
510.331	7.7
510.679	7.72
511.027	7.72
511.375	7.73
511.723	7.76
512.07	7.76
512.418	7.78
512.766	7.81
513.114	7.83
513.461	7.86
513.809	7.87
514.156	7.87
514.504	7.89
514.851	7.87
515.199	7.86
515.546	7.84
515.893	7.86
516.241	7.88
516.588	7.88
516.935	7.87
517.282	7.88
517.63	7.88
517.977	7.88
518.324	7.9
518.671	7.91
519.018	7.92
519.365	7.96
519.711	7.96
520.058	7.95
520.405	7.95
520.752	7.95
521.099	7.97
521.445	7.97
521.792	7.98
522.138	8.01
522.485	8.02
522.832	8.04
523.178	8.05
523.524	8.07
523.871	8.08
524.217	8.07
524.563	8.04
524.91	8.01
525.256	7.97
525.602	7.94
525.948	7.93
526.294	7.91
526.64	7.89
526.986	7.89
527.332	7.89
527.678	7.9
528.024	7.91
528.37	7.92
528.716	7.93
529.061	7.94
529.407	7.94
529.753	7.94
530.098	7.94
530.444	7.95
530.789	7.96
531.135	7.96
531.48	7.98
531.826	8
532.171	8.03
532.516	8.07
532.862	8.12
533.207	8.14
533.552	8.18
533.897	8.21
534.242	8.23
534.587	8.27
534.932	8.28
535.277	8.28
535.622	8.29
535.967	8.31
536.312	8.33
536.657	8.35
537.001	8.4
537.346	8.43
537.691	8.46
538.035	8.45
538.38	8.45
538.724	8.45
539.069	8.46
539.413	8.47
539.758	8.48
540.102	8.5
540.446	8.5
540.791	8.52
541.135	8.55
541.479	8.55
541.823	8.56
542.167	8.55
542.512	8.57
542.856	8.57
543.2	8.57
543.543	8.58
543.887	8.59
544.231	8.61
544.575	8.64
544.919	8.66
545.262	8.7
545.606	8.74
545.95	8.8
546.293	8.84
546.637	8.87
546.98	8.92
547.324	8.94
547.667	8.99
548.011	9.02
548.354	9.03
548.697	9.07
549.04	9.12
549.384	9.14
549.727	9.18
550.07	9.23
550.413	9.28
550.756	9.32
551.099	9.36
551.442	9.39
551.785	9.41
552.128	9.44
552.47	9.48
552.813	9.51
553.156	9.53
553.499	9.55
553.841	9.59
554.184	9.61
554.526	9.65
554.869	9.67
555.211	9.69
555.554	9.75
555.896	9.76
556.238	9.77
556.581	9.83
556.923	9.89
557.265	9.93
557.607	9.97
557.949	10.01
558.291	10.05
558.633	10.1
558.975	10.16
559.317	10.19
559.659	10.24
560.001	10.29
560.343	10.33
560.685	10.37
561.026	10.38
561.368	10.43
561.71	10.45
562.051	10.54
562.393	10.61
562.734	10.64
563.076	10.71
563.417	10.78
563.759	10.87
564.1	10.94
564.441	11
564.782	11.07
565.124	11.12
565.465	11.18
565.806	11.26
566.147	11.33
566.488	11.42
566.829	11.47
567.17	11.54
567.511	11.62
567.851	11.69
568.192	11.81
568.533	11.91
568.874	12.04
569.214	12.12
569.555	12.22
569.895	12.33
570.236	12.45
570.576	12.55
570.917	12.64
571.257	12.71
571.598	12.83
571.938	12.96
572.278	13.1
572.618	13.23
572.959	13.32
573.299	13.44
573.639	13.51
573.979	13.62
574.319	13.76
574.659	13.87
574.999	13.98
575.339	14.07
575.678	14.18
576.018	14.28
576.358	14.39
576.698	14.51
577.037	14.63
577.377	14.76
577.716	14.87
578.056	15.02
578.395	15.19
578.735	15.33
579.074	15.4
579.413	15.49
579.753	15.61
580.092	15.77
580.431	15.94
580.77	16.11
581.109	16.29
581.448	16.39
581.787	16.57
582.126	16.77
582.465	16.96
582.804	17.11
583.143	17.28
583.482	17.45
583.82	17.59
584.159	17.76
584.498	17.89
584.836	18.08
585.175	18.24
585.514	18.38
585.852	18.57
586.19	18.82
586.529	19.01
586.867	19.19
587.205	19.35
587.544	19.5
587.882	19.68
588.22	19.86
588.558	20.02
588.896	20.15
589.234	20.27
589.572	20.43
589.91	20.58
590.248	20.76
590.586	20.94
590.924	21.12
591.262	21.27
591.599	21.45
591.937	21.6
592.275	21.77
592.612	21.93
592.95	22.09
593.287	22.25
593.625	22.45
593.962	22.64
594.299	22.81
594.637	22.95
594.974	23.08
595.311	23.19
595.648	23.32
595.985	23.46
596.322	23.56
596.659	23.68
596.996	23.8
597.333	23.87
597.67	23.97
598.007	24.09
598.344	24.21
598.681	24.33
599.017	24.43
599.354	24.54
599.691	24.68
600.027	24.79
600.364	24.9
600.7	25.03
601.037	25.15
601.373	25.32
601.71	25.46
602.046	25.61
602.382	25.75
602.718	25.86
603.054	25.94
603.391	26.04
603.727	26.12
604.063	26.2
604.399	26.25
604.735	26.32
605.071	26.42
605.406	26.48
605.742	26.6
606.078	26.7
606.414	26.79
606.749	26.9
607.085	26.94
607.421	27.05
607.756	27.09
608.092	27.17
608.427	27.18
608.762	27.21
609.098	27.23
609.433	27.26
609.768	27.31
610.104	27.36
610.439	27.43
610.774	27.45
611.109	27.52
611.444	27.58
611.779	27.64
612.114	27.63
612.449	27.66
612.784	27.66
613.118	27.69
613.453	27.68
613.788	27.66
614.123	27.7
614.457	27.73
614.792	27.81
615.126	27.88
615.461	27.98
615.795	28.07
616.13	28.16
616.464	28.25
616.798	28.35
617.132	28.44
617.467	28.53
617.801	28.62
618.135	28.65
618.469	28.75
618.803	28.78
619.137	28.82
619.471	28.93
619.805	28.93
620.139	28.98
620.472	29.04
620.806	29.07
621.14	29.17
621.473	29.14
621.807	29.13
622.141	29.11
622.474	29.13
622.808	29.18
623.141	29.22
623.474	29.29
623.808	29.28
624.141	29.28
624.474	29.27
624.807	29.28
625.141	29.33
625.474	29.32
625.807	29.39
626.14	29.43
626.473	29.43
626.806	29.51
627.138	29.53
627.471	29.57
627.804	29.57
628.137	29.6
628.469	29.64
628.802	29.7
629.135	29.73
629.467	29.76
629.8	29.74
630.132	29.74
630.465	29.72
630.797	29.79
631.129	29.84
631.461	29.87
631.794	29.89
632.126	29.87
632.458	29.89
632.79	29.9
633.122	29.97
633.454	29.96
633.786	29.91
634.118	29.92
634.45	29.9
634.781	29.96
635.113	29.95
635.445	29.99
635.777	30.01
636.108	30.01
636.44	30.03
636.771	30.08
637.103	30.09
637.434	30.07
637.765	30.06
638.097	30.03
638.428	30
638.759	30.01
639.09	30
639.422	30
639.753	29.95
640.084	29.87
640.415	29.89
640.746	29.97
641.077	29.98
641.407	29.99
641.738	30.01
642.069	30.04
642.4	30.01
642.73	30
643.061	30.04
643.392	30.05
643.722	30.05
644.053	30.01
644.383	30.05
644.713	30.06
645.044	30.05
645.374	30.08
645.704	30.15
646.034	30.25
646.365	30.25
646.695	30.33
647.025	30.39
647.355	30.42
647.685	30.4
648.015	30.41
648.344	30.46
648.674	30.5
649.004	30.5
649.334	30.58
649.663	30.63
649.993	30.66
650.323	30.72
650.652	30.71
650.982	30.77
651.311	30.79
651.64	30.79
651.97	30.84
652.299	30.9
652.628	30.86
652.958	30.84
653.287	30.88
653.616	30.89
653.945	30.9
