Data from pcis_c_h2_p5_Reflection_1.txt Node
Date: Wed Jul 12 17:42:22 ART 2017
User: rodoncho
Spectrometer: USB2E3644
Trigger mode: 4
Integration Time (sec): 6.000000E-2
Scans to average: 10
Electric dark correction enabled: true
Nonlinearity correction enabled: false
Boxcar width: 10
XAxis mode: Wavelengths
Number of Pixels in Spectrum: 2048
>>>>>Begin Spectral Data<<<<<
178.315	16.02
178.696	37.97
179.076	42.5
179.457	47.37
179.838	31.09
180.218	-37.28
180.599	138.46
180.979	-110
181.36	304.62
181.74	276.92
182.121	-1200
182.501	122.53
182.881	144.74
183.262	177.92
183.642	627.69
184.022	-328.77
184.402	-19.58
184.783	17.61
185.163	49.91
185.543	61.31
185.923	66.58
186.303	82.66
186.683	89.63
187.063	90.47
187.443	99.1
187.823	105.79
188.203	112.15
188.583	119.85
188.963	117.1
189.343	118.6
189.723	115.34
190.102	118.09
190.482	122.36
190.862	128.12
191.242	122.1
191.621	120.18
192.001	121
192.38	121.54
192.76	117.63
193.14	107.07
193.519	104.25
193.898	107.73
194.278	106.62
194.657	103.73
195.037	102.56
195.416	101.23
195.795	99.31
196.175	96.99
196.554	97.36
196.933	97.55
197.312	98.04
197.692	99.13
198.071	97.74
198.45	96.04
198.829	94.08
199.208	94.5
199.587	95.93
199.966	96.75
200.345	97.55
200.724	98.14
201.103	99.6
201.482	100.18
201.86	100.27
202.239	101.35
202.618	103.3
202.997	104.04
203.375	103.54
203.754	103.23
204.133	102.64
204.511	102.05
204.89	101.92
205.269	100.8
205.647	101.4
206.026	102.36
206.404	102.87
206.782	103.49
207.161	105.44
207.539	104.59
207.918	102.53
208.296	102.56
208.674	102.84
209.052	102.24
209.431	101.97
209.809	99.52
210.187	98.3
210.565	97.53
210.943	97.98
211.321	98.21
211.699	97.43
212.077	96.99
212.455	97.12
212.833	97.03
213.211	96.97
213.589	96.99
213.967	96.28
214.345	96.43
214.722	96.63
215.1	95.68
215.478	95.17
215.855	95.22
216.233	94.96
216.611	95.73
216.988	96.91
217.366	96.25
217.743	96.03
218.121	95.9
218.498	95.44
218.876	95.7
219.253	95.95
219.631	96.51
220.008	97.42
220.385	97.37
220.762	98.08
221.14	98
221.517	97.3
221.894	97.28
222.271	97.68
222.648	97
223.025	97.06
223.402	96.55
223.78	97.56
224.157	98.04
224.533	98.57
224.91	99.39
225.287	101.7
225.664	104.18
226.041	104.22
226.418	104.52
226.795	104.27
227.171	103.42
227.548	103.13
227.925	102.73
228.301	104.11
228.678	104.78
229.055	106.34
229.431	107.19
229.808	108.27
230.184	107.96
230.561	108.39
230.937	109.54
231.313	110.43
231.69	110.27
232.066	110.6
232.442	110.04
232.819	109.73
233.195	109.27
233.571	110.49
233.947	111.65
234.323	112.07
234.699	112.3
235.075	112.64
235.451	113.28
235.827	113.98
236.203	113.99
236.579	114.14
236.955	114.83
237.331	115.63
237.707	116.79
238.083	119.42
238.459	123.93
238.834	129.77
239.21	137.49
239.586	144.78
239.961	149.03
240.337	153.86
240.713	158.48
241.088	161.36
241.464	160.82
241.839	163.27
242.215	170.89
242.59	183.79
242.965	212.24
243.341	268.33
243.716	363.45
244.091	510.25
244.467	728.54
244.842	1108.02
245.217	2110.25
245.592	3668.77
245.967	6347.59
246.343	6355.86
246.718	2861.54
247.093	2247.43
247.468	2370.39
247.843	3461.89
248.218	48221.05
248.593	-2932.48
248.967	-1360.6
249.342	-1034.74
249.717	-890.28
250.092	-910.55
250.467	-1228.49
250.841	-3619.12
251.216	1704.67
251.591	727.52
251.965	501.35
252.34	418.61
252.714	377.87
253.089	341.39
253.463	331.27
253.838	343.94
254.212	352.73
254.587	380.64
254.961	430.42
255.335	562.75
255.71	1372.47
256.084	-1288.06
256.458	-432.67
256.832	-276.49
257.206	-222.6
257.581	-194.82
257.955	-180.19
258.329	-164.64
258.703	-156.27
259.077	-147.17
259.451	-140.91
259.825	-132.47
260.199	-129.07
260.572	-127.39
260.946	-124.21
261.32	-121.24
261.694	-118.74
262.068	-116.16
262.441	-115.84
262.815	-114.09
263.189	-113.48
263.562	-119.75
263.936	-140.64
264.309	-173.32
264.683	-210.29
265.056	-228.76
265.43	-242.09
265.803	-236.34
266.176	-233.03
266.55	-223.03
266.923	-217.63
267.296	-206.53
267.67	-190.45
268.043	-170.1
268.416	-153.22
268.789	-136.51
269.162	-118.32
269.535	-108.29
269.908	-101.81
270.281	-96.97
270.654	-95.9
271.027	-99.1
271.4	-102.36
271.773	-103.67
272.146	-101.07
272.519	-97.66
272.891	-96.15
273.264	-96.12
273.637	-94.08
274.01	-92.32
274.382	-90.43
274.755	-87.71
275.127	-86.06
275.5	-87.86
275.872	-89.26
276.245	-89.97
276.617	-93.1
276.99	-99.94
277.362	-103.73
277.734	-104.28
278.107	-102.86
278.479	-98.12
278.851	-93.24
279.223	-88.38
279.596	-84.93
279.968	-83.46
280.34	-83.97
280.712	-82.45
281.084	-76.54
281.456	-71.26
281.828	-66.9
282.2	-61.89
282.572	-58.43
282.944	-56.16
283.315	-54.27
283.687	-52.86
284.059	-51.79
284.431	-50.02
284.802	-48.53
285.174	-46.69
285.546	-45.88
285.917	-45.66
286.289	-44.82
286.66	-43.39
287.032	-42.86
287.403	-41.77
287.775	-41.47
288.146	-40.34
288.518	-39.87
288.889	-39.8
289.26	-40.63
289.632	-41.03
290.003	-42.34
290.374	-43.25
290.745	-43.66
291.116	-43.6
291.487	-43.15
291.858	-42.08
292.229	-41.99
292.6	-40.87
292.971	-40.21
293.342	-38.35
293.713	-36.43
294.084	-35.39
294.455	-35.04
294.826	-34.75
295.196	-35.3
295.567	-34.92
295.938	-34.53
296.308	-34.1
296.679	-33.62
297.05	-33.1
297.42	-32.74
297.791	-31.97
298.161	-31.37
298.532	-30.92
298.902	-30.54
299.272	-29.93
299.643	-29.69
300.013	-29.24
300.383	-28.61
300.754	-28.27
301.124	-28.25
301.494	-28.09
301.864	-28.13
302.234	-27.93
302.604	-27.84
302.974	-27.22
303.344	-26.67
303.714	-26.75
304.084	-26.34
304.454	-25.83
304.824	-24.92
305.194	-24.51
305.563	-23.84
305.933	-22.69
306.303	-21.48
306.673	-20.82
307.042	-20.28
307.412	-19.5
307.781	-18.48
308.151	-17.95
308.521	-17.41
308.89	-17.19
309.259	-16.93
309.629	-16.45
309.998	-16.14
310.368	-15.65
310.737	-15.55
311.106	-15.66
311.475	-15.06
311.845	-15.05
312.214	-14.87
312.583	-14.82
312.952	-14.22
313.321	-14.18
313.69	-14.41
314.059	-15.05
314.428	-15.35
314.797	-15.71
315.166	-16.3
315.535	-16.65
315.904	-17
316.272	-17.32
316.641	-17.63
317.01	-17.73
317.379	-17.72
317.747	-17.41
318.116	-16.9
318.484	-16.26
318.853	-15.81
319.221	-15.9
319.59	-15.65
319.958	-15.48
320.327	-15.51
320.695	-15.3
321.063	-14.95
321.432	-14.43
321.8	-13.72
322.168	-12.44
322.536	-11.55
322.905	-10.37
323.273	-9.84
323.641	-9.43
324.009	-9.11
324.377	-8.47
324.745	-8.09
325.113	-7.86
325.481	-7.55
325.849	-7.51
326.216	-7.2
326.584	-6.71
326.952	-6.36
327.32	-5.88
327.687	-5.6
328.055	-5.28
328.423	-5.24
328.79	-5.25
329.158	-5.37
329.525	-5.06
329.893	-5.19
330.26	-5.21
330.628	-5.49
330.995	-5.37
331.362	-5.07
331.73	-4.65
332.097	-4.46
332.464	-4.36
332.831	-4.21
333.199	-4.07
333.566	-3.77
333.933	-3.87
334.3	-4.04
334.667	-3.92
335.034	-3.77
335.401	-3.59
335.768	-3.46
336.135	-3.27
336.502	-3.06
336.868	-2.69
337.235	-2.51
337.602	-2.08
337.969	-1.82
338.335	-1.64
338.702	-1.41
339.069	-1.31
339.435	-1.17
339.802	-1.03
340.168	-0.83
340.535	-0.62
340.901	-0.51
341.267	-0.39
341.634	-0.07
342	0.32
342.366	0.52
342.733	0.68
343.099	0.85
343.465	1
343.831	1.15
344.197	1.27
344.563	1.39
344.929	1.56
345.295	1.6
345.661	1.69
346.027	1.97
346.393	1.99
346.759	2.04
347.125	2.11
347.491	2.22
347.856	2.29
348.222	2.26
348.588	2.36
348.953	2.39
349.319	2.44
349.684	2.32
350.05	2.37
350.415	2.43
350.781	2.58
351.146	2.84
351.512	2.91
351.877	2.98
352.242	3.05
352.608	2.95
352.973	2.96
353.338	3.01
353.703	3.03
354.068	3.18
354.433	3.39
354.798	3.54
355.164	3.54
355.528	3.54
355.893	3.68
356.258	3.81
356.623	3.98
356.988	4.17
357.353	4.41
357.718	4.53
358.082	4.64
358.447	4.62
358.812	4.55
359.176	4.62
359.541	4.72
359.905	4.81
360.27	4.99
360.634	5.18
360.999	5.26
361.363	5.39
361.728	5.46
362.092	5.48
362.456	5.51
362.821	5.6
363.185	5.74
363.549	5.85
363.913	5.98
364.277	6.04
364.641	6.06
365.005	6.13
365.369	6.23
365.733	6.38
366.097	6.58
366.461	6.7
366.825	6.79
367.189	6.95
367.553	7.04
367.916	7.14
368.28	7.16
368.644	7.3
369.007	7.37
369.371	7.46
369.734	7.59
370.098	7.75
370.461	7.92
370.825	8
371.188	8.08
371.552	8.13
371.915	8.27
372.278	8.46
372.642	8.62
373.005	8.72
373.368	8.74
373.731	8.78
374.094	8.89
374.457	8.95
374.82	9.02
375.183	9.13
375.546	9.22
375.909	9.29
376.272	9.36
376.635	9.39
376.998	9.47
377.361	9.48
377.723	9.57
378.086	9.62
378.449	9.76
378.811	9.88
379.174	9.92
379.537	9.91
379.899	9.96
380.262	9.98
380.624	10
380.987	10.08
381.349	10.16
381.711	10.18
382.074	10.25
382.436	10.35
382.798	10.35
383.16	10.35
383.522	10.39
383.884	10.47
384.247	10.57
384.609	10.64
384.971	10.77
385.333	10.79
385.695	10.81
386.056	10.77
386.418	10.73
386.78	10.75
387.142	10.81
387.504	10.83
387.865	10.88
388.227	10.91
388.589	10.92
388.95	10.92
389.312	10.98
389.673	11.03
390.035	10.99
390.396	11.01
390.758	11.02
391.119	10.99
391.48	10.95
391.842	10.93
392.203	10.89
392.564	10.88
392.925	10.89
393.286	10.9
393.648	10.94
394.009	10.99
394.37	11
394.731	11.02
395.092	10.98
395.452	10.94
395.813	10.99
396.174	10.99
396.535	10.97
396.896	10.94
397.257	10.93
397.617	10.97
397.978	11.02
398.338	11.09
398.699	11.12
399.06	11.16
399.42	11.15
399.781	11.16
400.141	11.13
400.501	11.13
400.862	11.16
401.222	11.19
401.582	11.18
401.943	11.2
402.303	11.19
402.663	11.21
403.023	11.24
403.383	11.2
403.743	11.22
404.103	11.28
404.463	11.33
404.823	11.35
405.183	11.36
405.543	11.33
405.903	11.33
406.262	11.35
406.622	11.36
406.982	11.39
407.342	11.43
407.701	11.44
408.061	11.4
408.42	11.36
408.78	11.35
409.139	11.34
409.499	11.35
409.858	11.37
410.217	11.4
410.577	11.38
410.936	11.41
411.295	11.43
411.655	11.4
412.014	11.35
412.373	11.34
412.732	11.31
413.091	11.27
413.45	11.23
413.809	11.19
414.168	11.12
414.527	11.06
414.886	10.98
415.245	10.91
415.603	10.88
415.962	10.84
416.321	10.76
416.679	10.69
417.038	10.62
417.397	10.53
417.755	10.46
418.114	10.4
418.472	10.37
418.831	10.31
419.189	10.27
419.547	10.22
419.906	10.17
420.264	10.11
420.622	10.08
420.981	10.03
421.339	10
421.697	9.96
422.055	9.94
422.413	9.93
422.771	9.92
423.129	9.91
423.487	9.91
423.845	9.92
424.203	9.92
424.56	9.94
424.918	9.96
425.276	9.98
425.634	10
425.991	10.01
426.349	10.03
426.707	10.06
427.064	10.09
427.422	10.11
427.779	10.17
428.137	10.18
428.494	10.25
428.851	10.31
429.209	10.37
429.566	10.4
429.923	10.4
430.28	10.41
430.637	10.42
430.995	10.44
431.352	10.44
431.709	10.47
432.066	10.48
432.423	10.49
432.78	10.5
433.137	10.53
433.493	10.51
433.85	10.55
434.207	10.51
434.564	10.53
434.92	10.53
435.277	10.52
435.634	10.53
435.99	10.52
436.347	10.51
436.703	10.49
437.06	10.5
437.416	10.53
437.773	10.55
438.129	10.54
438.485	10.54
438.841	10.56
439.198	10.54
439.554	10.53
439.91	10.54
440.266	10.53
440.622	10.51
440.978	10.51
441.334	10.47
441.69	10.48
442.046	10.45
442.402	10.41
442.758	10.36
443.113	10.34
443.469	10.29
443.825	10.28
444.181	10.29
444.536	10.28
444.892	10.24
445.247	10.23
445.603	10.23
445.958	10.2
446.314	10.17
446.669	10.16
447.025	10.15
447.38	10.13
447.735	10.12
448.09	10.11
448.446	10.09
448.801	10.09
449.156	10.07
449.511	10.07
449.866	10.08
450.221	10.13
450.576	10.16
450.931	10.19
451.286	10.19
451.641	10.18
451.995	10.18
452.35	10.21
452.705	10.2
453.06	10.2
453.414	10.23
453.769	10.26
454.123	10.27
454.478	10.27
454.832	10.28
455.187	10.27
455.541	10.27
455.896	10.24
456.25	10.23
456.604	10.25
456.958	10.24
457.313	10.27
457.667	10.29
458.021	10.31
458.375	10.36
458.729	10.41
459.083	10.45
459.437	10.47
459.791	10.5
460.145	10.56
460.499	10.61
460.852	10.64
461.206	10.68
461.56	10.72
461.914	10.77
462.267	10.82
462.621	10.88
462.974	10.98
463.328	11.09
463.681	11.21
464.035	11.3
464.388	11.41
464.742	11.49
465.095	11.59
465.448	11.66
465.801	11.72
466.155	11.76
466.508	11.8
466.861	11.85
467.214	11.92
467.567	11.97
467.92	12.02
468.273	12.08
468.626	12.11
468.979	12.16
469.332	12.19
469.684	12.23
470.037	12.27
470.39	12.29
470.743	12.34
471.095	12.37
471.448	12.42
471.8	12.46
472.153	12.49
472.505	12.51
472.858	12.51
473.21	12.51
473.562	12.49
473.915	12.49
474.267	12.48
474.619	12.45
474.971	12.42
475.324	12.38
475.676	12.33
476.028	12.3
476.38	12.26
476.732	12.24
477.084	12.2
477.436	12.14
477.787	12.09
478.139	12.03
478.491	11.95
478.843	11.87
479.195	11.78
479.546	11.64
479.898	11.47
480.249	11.32
480.601	11.21
480.952	11.13
481.304	11.07
481.655	11.04
482.007	11.01
482.358	10.99
482.709	10.96
483.061	10.95
483.412	10.92
483.763	10.9
484.114	10.89
484.465	10.87
484.816	10.88
485.167	10.87
485.518	10.87
485.869	10.89
486.22	10.91
486.571	10.93
486.922	10.97
487.272	11.01
487.623	11.08
487.974	11.16
488.324	11.26
488.675	11.33
489.025	11.39
489.376	11.47
489.726	11.54
490.077	11.62
490.427	11.7
490.778	11.8
491.128	11.9
491.478	12.03
491.828	12.17
492.179	12.31
492.529	12.46
492.879	12.6
493.229	12.74
493.579	12.85
493.929	12.97
494.279	13.09
494.629	13.26
494.979	13.44
495.328	13.67
495.678	13.89
496.028	14.14
496.378	14.35
496.727	14.55
497.077	14.72
497.426	14.89
497.776	15.05
498.125	15.22
498.475	15.38
498.824	15.53
499.174	15.68
499.523	15.82
499.872	15.98
500.221	16.15
500.571	16.33
500.92	16.51
501.269	16.69
501.618	16.88
501.967	17.03
502.316	17.19
502.665	17.36
503.014	17.52
503.363	17.66
503.711	17.82
504.06	17.95
504.409	18.1
504.758	18.21
505.106	18.33
505.455	18.44
505.803	18.54
506.152	18.63
506.5	18.74
506.849	18.84
507.197	18.93
507.546	19.03
507.894	19.13
508.242	19.23
508.59	19.31
508.939	19.39
509.287	19.47
509.635	19.54
509.983	19.59
510.331	19.66
510.679	19.74
511.027	19.79
511.375	19.86
511.723	19.94
512.07	20.04
512.418	20.15
512.766	20.24
513.114	20.32
513.461	20.39
513.809	20.45
514.156	20.53
514.504	20.61
514.851	20.66
515.199	20.69
515.546	20.74
515.893	20.81
516.241	20.89
516.588	20.95
516.935	21.01
517.282	21.07
517.63	21.11
517.977	21.15
518.324	21.22
518.671	21.27
519.018	21.29
519.365	21.31
519.711	21.34
520.058	21.37
520.405	21.41
520.752	21.46
521.099	21.49
521.445	21.5
521.792	21.54
522.138	21.58
522.485	21.66
522.832	21.71
523.178	21.77
523.524	21.79
523.871	21.81
524.217	21.84
524.563	21.84
524.91	21.86
525.256	21.86
525.602	21.88
525.948	21.89
526.294	21.91
526.64	21.91
526.986	21.93
527.332	21.95
527.678	21.98
528.024	21.99
528.37	22.03
528.716	22.05
529.061	22.08
529.407	22.1
529.753	22.11
530.098	22.12
530.444	22.12
530.789	22.14
531.135	22.18
531.48	22.21
531.826	22.26
532.171	22.32
532.516	22.38
532.862	22.42
533.207	22.48
533.552	22.52
533.897	22.56
534.242	22.6
534.587	22.63
534.932	22.63
535.277	22.67
535.622	22.68
535.967	22.73
536.312	22.76
536.657	22.81
537.001	22.84
537.346	22.91
537.691	22.93
538.035	22.94
538.38	22.94
538.724	22.94
539.069	22.95
539.413	22.96
539.758	22.99
540.102	23.02
540.446	23.02
540.791	23.05
541.135	23.08
541.479	23.08
541.823	23.07
542.167	23.08
542.512	23.09
542.856	23.1
543.2	23.09
543.543	23.1
543.887	23.1
544.231	23.14
544.575	23.14
544.919	23.19
545.262	23.24
545.606	23.29
545.95	23.33
546.293	23.37
546.637	23.39
546.98	23.41
547.324	23.41
547.667	23.45
548.011	23.45
548.354	23.45
548.697	23.45
549.04	23.49
549.384	23.5
549.727	23.51
550.07	23.53
550.413	23.55
550.756	23.58
551.099	23.59
551.442	23.57
551.785	23.58
552.128	23.59
552.47	23.57
552.813	23.57
553.156	23.54
553.499	23.56
553.841	23.56
554.184	23.55
554.526	23.57
554.869	23.58
555.211	23.58
555.554	23.59
555.896	23.63
556.238	23.64
556.581	23.69
556.923	23.72
557.265	23.71
557.607	23.73
557.949	23.68
558.291	23.7
558.633	23.71
558.975	23.71
559.317	23.72
559.659	23.71
560.001	23.7
560.343	23.71
560.685	23.67
561.026	23.65
561.368	23.63
561.71	23.57
562.051	23.57
562.393	23.6
562.734	23.6
563.076	23.57
563.417	23.57
563.759	23.52
564.1	23.48
564.441	23.48
564.782	23.47
565.124	23.46
565.465	23.44
565.806	23.45
566.147	23.45
566.488	23.43
566.829	23.43
567.17	23.42
567.511	23.39
567.851	23.37
568.192	23.37
568.533	23.36
568.874	23.41
569.214	23.38
569.555	23.32
569.895	23.31
570.236	23.32
570.576	23.31
570.917	23.29
571.257	23.28
571.598	23.27
571.938	23.24
572.278	23.24
572.618	23.23
572.959	23.2
573.299	23.16
573.639	23.15
573.979	23.09
574.319	23.09
574.659	23.08
574.999	23.05
575.339	23.06
575.678	23.05
576.018	22.98
576.358	22.96
576.698	22.96
577.037	22.94
577.377	22.9
577.716	22.87
578.056	22.85
578.395	22.83
578.735	22.79
579.074	22.74
579.413	22.7
579.753	22.69
580.092	22.68
580.431	22.67
580.77	22.65
581.109	22.71
581.448	22.67
581.787	22.64
582.126	22.64
582.465	22.6
582.804	22.61
583.143	22.61
583.482	22.61
583.82	22.58
584.159	22.55
584.498	22.51
584.836	22.51
585.175	22.54
585.514	22.52
585.852	22.55
586.19	22.55
586.529	22.57
586.867	22.57
587.205	22.55
587.544	22.58
587.882	22.57
588.22	22.51
588.558	22.52
588.896	22.53
589.234	22.52
589.572	22.51
589.91	22.48
590.248	22.45
590.586	22.44
590.924	22.47
591.262	22.46
591.599	22.5
591.937	22.47
592.275	22.44
592.612	22.41
592.95	22.43
593.287	22.44
593.625	22.45
593.962	22.45
594.299	22.48
594.637	22.48
594.974	22.5
595.311	22.52
595.648	22.52
595.985	22.54
596.322	22.55
596.659	22.55
596.996	22.55
597.333	22.53
597.67	22.5
598.007	22.45
598.344	22.45
598.681	22.42
599.017	22.4
599.354	22.4
599.691	22.39
600.027	22.37
600.364	22.35
600.7	22.3
601.037	22.31
601.373	22.3
601.71	22.26
602.046	22.26
602.382	22.25
602.718	22.22
603.054	22.19
603.391	22.19
603.727	22.19
604.063	22.19
604.399	22.19
604.735	22.2
605.071	22.21
605.406	22.23
605.742	22.19
606.078	22.21
606.414	22.21
606.749	22.23
607.085	22.19
607.421	22.18
607.756	22.17
608.092	22.14
608.427	22.11
608.762	22.1
609.098	22.04
609.433	21.99
609.768	21.98
610.104	21.97
610.439	21.94
610.774	21.9
611.109	21.86
611.444	21.83
611.779	21.82
612.114	21.83
612.449	21.77
612.784	21.78
613.118	21.76
613.453	21.75
613.788	21.67
614.123	21.61
614.457	21.54
614.792	21.56
615.126	21.49
615.461	21.46
615.795	21.47
616.13	21.42
616.464	21.44
616.798	21.39
617.132	21.41
617.467	21.42
617.801	21.39
618.135	21.41
618.469	21.42
618.803	21.37
619.137	21.33
619.471	21.32
619.805	21.31
620.139	21.3
620.472	21.26
620.806	21.31
621.14	21.33
621.473	21.37
621.807	21.29
622.141	21.32
622.474	21.32
622.808	21.29
623.141	21.34
623.474	21.37
623.808	21.41
624.141	21.36
624.474	21.33
624.807	21.36
625.141	21.37
625.474	21.33
625.807	21.38
626.14	21.39
626.473	21.39
626.806	21.39
627.138	21.35
627.471	21.35
627.804	21.35
628.137	21.31
628.469	21.31
628.802	21.31
629.135	21.26
629.467	21.23
629.8	21.17
630.132	21.18
630.465	21.17
630.797	21.14
631.129	21.14
631.461	21.15
631.794	21.15
632.126	21.14
632.458	21.16
632.79	21.16
633.122	21.2
633.454	21.2
633.786	21.19
634.118	21.22
634.45	21.2
634.781	21.2
635.113	21.21
635.445	21.21
635.777	21.22
636.108	21.24
636.44	21.28
636.771	21.29
637.103	21.23
637.434	21.19
637.765	21.2
638.097	21.19
638.428	21.15
638.759	21.12
639.09	21.11
639.422	21.1
639.753	21.03
640.084	20.97
640.415	20.99
640.746	21.03
641.077	21.01
641.407	20.96
641.738	20.94
642.069	21
642.4	20.93
642.73	20.91
643.061	20.95
643.392	20.98
643.722	20.98
644.053	21.04
644.383	21.05
644.713	20.99
645.044	21
645.374	20.98
