Data from pcis_p_h4_p2_Reflection_1.txt Node
Date: Wed Jul 12 18:04:06 ART 2017
User: rodoncho
Spectrometer: USB2E3644
Trigger mode: 4
Integration Time (sec): 6.000000E-2
Scans to average: 10
Electric dark correction enabled: true
Nonlinearity correction enabled: false
Boxcar width: 10
XAxis mode: Wavelengths
Number of Pixels in Spectrum: 2048
>>>>>Begin Spectral Data<<<<<
178.315	-6.82
178.696	84.78
179.076	73.57
179.457	101.16
179.838	97.06
180.218	-190.91
180.599	20.27
180.979	0
181.36	190.54
181.74	-14.46
182.121	-165
182.501	102.02
182.881	120.6
183.262	128.98
183.642	360.81
184.022	-150
184.402	-24.38
184.783	30
185.163	61.39
185.543	78.68
185.923	85.9
186.303	90.76
186.683	102.6
187.063	106.97
187.443	123.62
187.823	134.83
188.203	141.47
188.583	143.49
188.963	140.07
189.343	138.56
189.723	132.21
190.102	129.8
190.482	136.61
190.862	141.5
191.242	140.65
191.621	141.57
192.001	143.16
192.38	136.58
192.76	141.98
193.14	142.27
193.519	138.83
193.898	134.94
194.278	132.36
194.657	133.09
195.037	133.44
195.416	128.83
195.795	125.29
196.175	124.11
196.554	123.7
196.933	122.5
197.312	122.88
197.692	124.1
198.071	125.47
198.45	123.2
198.829	122.21
199.208	124.2
199.587	124.25
199.966	125.41
200.345	127.05
200.724	124.6
201.103	122.92
201.482	123.63
201.86	125.84
202.239	127.01
202.618	123.67
202.997	122.78
203.375	123.47
203.754	123.41
204.133	123.84
204.511	122.81
204.89	122.79
205.269	121.76
205.647	120.21
206.026	119.54
206.404	119.53
206.782	119.79
207.161	118.26
207.539	119.17
207.918	118.49
208.296	117.1
208.674	117.19
209.052	118.32
209.431	118.91
209.809	118.62
210.187	118.3
210.565	119.87
210.943	120.86
211.321	121.06
211.699	121.99
212.077	122.25
212.455	121.81
212.833	122.34
213.211	123.62
213.589	122.77
213.967	122.32
214.345	121.44
214.722	121.36
215.1	123.65
215.478	123.68
215.855	124.33
216.233	123.15
216.611	122
216.988	120.93
217.366	120.37
217.743	118.56
218.121	116.97
218.498	114.45
218.876	112.69
219.253	112.68
219.631	112.11
220.008	110.91
220.385	111.61
220.762	110.93
221.14	109.73
221.517	110.25
221.894	110.85
222.271	111
222.648	110.77
223.025	108.25
223.402	108.07
223.78	107.86
224.157	108.85
224.533	110.56
224.91	110.32
225.287	110.58
225.664	111.9
226.041	114.49
226.418	117.38
226.795	119.1
227.171	118.16
227.548	118.1
227.925	118.36
228.301	118
228.678	118.61
229.055	120.01
229.431	119.33
229.808	119.25
230.184	119.7
230.561	119.99
230.937	122.16
231.313	123.06
231.69	123.36
232.066	124.44
232.442	123.61
232.819	124.09
233.195	123.92
233.571	124.48
233.947	121.8
234.323	121.41
234.699	120.37
235.075	120.8
235.451	121.08
235.827	120.9
236.203	121.3
236.579	121.66
236.955	121.33
237.331	123.51
237.707	126.05
238.083	129.79
238.459	131.66
238.834	135.2
239.21	139.43
239.586	143.08
239.961	145.67
240.337	148.4
240.713	151.67
241.088	156.01
241.464	160.44
241.839	167.17
242.215	173.29
242.59	184.92
242.965	211.59
243.341	268.33
243.716	362.33
244.091	508.08
244.467	702.05
244.842	1229.55
245.217	2608.24
245.592	7237.5
245.967	35046.43
246.343	-494250
246.718	9921
247.093	4884.65
247.468	6125.63
247.843	12959.21
248.218	-5219.68
248.593	-1689.45
248.967	-1013.83
249.342	-858.76
249.717	-852.67
250.092	-857.93
250.467	-994.66
250.841	-1999.8
251.216	3062.42
251.591	1003.54
251.965	654.78
252.34	538.73
252.714	457.9
253.089	403.12
253.463	379.95
253.838	376.6
254.212	391.42
254.587	444.11
254.961	576.27
255.335	895.42
255.71	8836.61
256.084	-827.51
256.458	-377.83
256.832	-255.91
257.206	-214.91
257.581	-190.08
257.955	-175.68
258.329	-163.92
258.703	-153.1
259.077	-142.63
259.451	-136.41
259.825	-130.54
260.199	-126.3
260.572	-122.61
260.946	-116.59
261.32	-113.71
261.694	-109.53
262.068	-107.17
262.441	-104.97
262.815	-105.91
263.189	-105.36
263.562	-110.08
263.936	-123.31
264.309	-148.28
264.683	-177.55
265.056	-192.94
265.43	-201.02
265.803	-200.63
266.176	-197.07
266.55	-196.59
266.923	-193.66
267.296	-186.33
267.67	-175.77
268.043	-159.57
268.416	-145.66
268.789	-132.06
269.162	-117.48
269.535	-109.94
269.908	-104.2
270.281	-101
270.654	-99.04
271.027	-102.44
271.4	-105.1
271.773	-105.39
272.146	-103.28
272.519	-100.08
272.891	-97.29
273.264	-95.66
273.637	-93.96
274.01	-94.65
274.382	-93.39
274.755	-92.21
275.127	-90.89
275.5	-90.89
275.872	-91.12
276.245	-91.98
276.617	-95.49
276.99	-100.97
277.362	-103.3
277.734	-104.01
278.107	-100.76
278.479	-96.16
278.851	-91.86
279.223	-87.74
279.596	-87.99
279.968	-87.88
280.34	-87.82
280.712	-85.62
281.084	-81.29
281.456	-75.26
281.828	-68.79
282.2	-63.97
282.572	-59.54
282.944	-56.56
283.315	-55.11
283.687	-54.06
284.059	-53.36
284.431	-52.37
284.802	-51.32
285.174	-49.96
285.546	-48.93
285.917	-48.79
286.289	-47.85
286.66	-46.62
287.032	-46.73
287.403	-45.54
287.775	-44.54
288.146	-43.9
288.518	-44.22
288.889	-44.29
289.26	-45.92
289.632	-47.59
290.003	-48.65
290.374	-50.47
290.745	-51.44
291.116	-51.39
291.487	-50.51
291.858	-49.55
292.229	-48.71
292.6	-47.04
292.971	-46.07
293.342	-43.61
293.713	-41.21
294.084	-39.99
294.455	-39.17
294.826	-37.74
295.196	-37.49
295.567	-37.16
295.938	-37.16
296.308	-36.62
296.679	-36.1
297.05	-35.24
297.42	-34.38
297.791	-33.25
298.161	-31.88
298.532	-31.41
298.902	-31.35
299.272	-30.88
299.643	-30.3
300.013	-29.69
300.383	-29.37
300.754	-29.06
301.124	-29.26
301.494	-29.34
301.864	-29.42
302.234	-29.73
302.604	-30.24
302.974	-29.9
303.344	-29.71
303.714	-29.07
304.084	-28.41
304.454	-27.91
304.824	-27.12
305.194	-26.37
305.563	-25.85
305.933	-24.95
306.303	-23.66
306.673	-22.32
307.042	-21.98
307.412	-21.43
307.781	-20.36
308.151	-19.58
308.521	-18.93
308.89	-18.63
309.259	-18.37
309.629	-18.31
309.998	-17.97
310.368	-17.76
310.737	-17.68
311.106	-17.33
311.475	-16.75
311.845	-16.55
312.214	-16.21
312.583	-15.92
312.952	-15.46
313.321	-15.19
313.69	-15.18
314.059	-15.65
314.428	-15.93
314.797	-16.07
315.166	-16.57
315.535	-16.94
315.904	-17.28
316.272	-17.65
316.641	-17.98
317.01	-18.3
317.379	-17.99
317.747	-17.84
318.116	-17.41
318.484	-16.84
318.853	-16.34
319.221	-16.22
319.59	-15.62
319.958	-15.32
320.327	-15.29
320.695	-15.3
321.063	-15.33
321.432	-15.36
321.8	-14.84
322.168	-14.26
322.536	-13.53
322.905	-12.61
323.273	-12.46
323.641	-11.99
324.009	-11.74
324.377	-11.42
324.745	-11.16
325.113	-11.1
325.481	-10.76
325.849	-10.35
326.216	-10
326.584	-9.75
326.952	-9.67
327.32	-9.55
327.687	-9.19
328.055	-8.73
328.423	-8.49
328.79	-8.23
329.158	-8.1
329.525	-7.75
329.893	-7.45
330.26	-7.35
330.628	-7.28
330.995	-6.75
331.362	-6.41
331.73	-5.89
332.097	-5.42
332.464	-5.01
332.831	-4.61
333.199	-4.31
333.566	-3.93
333.933	-3.88
334.3	-3.87
334.667	-3.6
335.034	-3.31
335.401	-3.34
335.768	-3.38
336.135	-3.1
336.502	-2.89
336.868	-2.5
337.235	-2.3
337.602	-2.08
337.969	-1.69
338.335	-1.33
338.702	-1.12
339.069	-1.03
339.435	-1.05
339.802	-0.97
340.168	-0.89
340.535	-0.7
340.901	-0.62
341.267	-0.56
341.634	-0.23
342	0.14
342.366	0.43
342.733	0.42
343.099	0.62
343.465	0.8
343.831	0.92
344.197	1.09
344.563	1.16
344.929	1.32
345.295	1.48
345.661	1.51
346.027	1.6
346.393	1.68
346.759	1.79
347.125	1.96
347.491	2.12
347.856	2.23
348.222	2.17
348.588	2.25
348.953	2.26
349.319	2.35
349.684	2.37
350.05	2.39
350.415	2.54
350.781	2.68
351.146	2.88
351.512	2.95
351.877	3.03
352.242	3.08
352.608	3.03
352.973	3
353.338	3.05
353.703	3.12
354.068	3.17
354.433	3.32
354.798	3.5
355.164	3.54
355.528	3.64
355.893	3.81
356.258	3.91
356.623	4.1
356.988	4.19
357.353	4.36
357.718	4.51
358.082	4.68
358.447	4.71
358.812	4.76
359.176	4.87
359.541	4.94
359.905	5.09
360.27	5.3
360.634	5.45
360.999	5.53
361.363	5.66
361.728	5.75
362.092	5.75
362.456	5.8
362.821	5.94
363.185	6.03
363.549	6.18
363.913	6.31
364.277	6.34
364.641	6.35
365.005	6.42
365.369	6.51
365.733	6.56
366.097	6.7
366.461	6.74
366.825	6.85
367.189	6.97
367.553	7
367.916	6.99
368.28	7.13
368.644	7.32
369.007	7.47
369.371	7.58
369.734	7.66
370.098	7.8
370.461	7.85
370.825	7.98
371.188	8.09
371.552	8.17
371.915	8.25
372.278	8.41
372.642	8.48
373.005	8.52
373.368	8.55
373.731	8.62
374.094	8.72
374.457	8.76
374.82	8.8
375.183	8.88
375.546	9.04
375.909	9.07
376.272	9.07
376.635	8.97
376.998	9
377.361	9.12
377.723	9.1
378.086	9.16
378.449	9.23
378.811	9.28
379.174	9.31
379.537	9.39
379.899	9.45
380.262	9.5
380.624	9.54
380.987	9.61
381.349	9.65
381.711	9.73
382.074	9.78
382.436	9.87
382.798	9.89
383.16	9.85
383.522	9.89
383.884	10
384.247	10.15
384.609	10.2
384.971	10.2
385.333	10.24
385.695	10.24
386.056	10.21
386.418	10.2
386.78	10.3
387.142	10.32
387.504	10.31
387.865	10.34
388.227	10.38
388.589	10.39
388.95	10.4
389.312	10.4
389.673	10.41
390.035	10.38
390.396	10.43
390.758	10.42
391.119	10.4
391.48	10.35
391.842	10.28
392.203	10.31
392.564	10.29
392.925	10.33
393.286	10.39
393.648	10.4
394.009	10.4
394.37	10.32
394.731	10.3
395.092	10.28
395.452	10.26
395.813	10.27
396.174	10.3
396.535	10.32
396.896	10.32
397.257	10.32
397.617	10.37
397.978	10.4
398.338	10.45
398.699	10.49
399.06	10.51
399.42	10.5
399.781	10.47
400.141	10.48
400.501	10.47
400.862	10.45
401.222	10.47
401.582	10.5
401.943	10.56
402.303	10.58
402.663	10.62
403.023	10.61
403.383	10.61
403.743	10.59
404.103	10.61
404.463	10.62
404.823	10.62
405.183	10.6
405.543	10.56
405.903	10.56
406.262	10.52
406.622	10.52
406.982	10.56
407.342	10.57
407.701	10.58
408.061	10.54
408.42	10.54
408.78	10.56
409.139	10.55
409.499	10.53
409.858	10.53
410.217	10.52
410.577	10.53
410.936	10.53
411.295	10.53
411.655	10.48
412.014	10.46
412.373	10.43
412.732	10.4
413.091	10.37
413.45	10.34
413.809	10.34
414.168	10.28
414.527	10.2
414.886	10.15
415.245	10.08
415.603	10.01
415.962	9.91
416.321	9.82
416.679	9.74
417.038	9.68
417.397	9.6
417.755	9.53
418.114	9.46
418.472	9.4
418.831	9.37
419.189	9.35
419.547	9.29
419.906	9.24
420.264	9.18
420.622	9.14
420.981	9.09
421.339	9.04
421.697	9.01
422.055	8.98
422.413	8.96
422.771	8.94
423.129	8.94
423.487	8.97
423.845	8.98
424.203	8.98
424.56	9
424.918	9
425.276	9.05
425.634	9.08
425.991	9.1
426.349	9.09
426.707	9.1
427.064	9.12
427.422	9.18
427.779	9.23
428.137	9.28
428.494	9.32
428.851	9.36
429.209	9.41
429.566	9.43
429.923	9.45
430.28	9.48
430.637	9.5
430.995	9.5
431.352	9.5
431.709	9.52
432.066	9.53
432.423	9.56
432.78	9.56
433.137	9.58
433.493	9.59
433.85	9.61
434.207	9.59
434.564	9.59
434.92	9.57
435.277	9.56
435.634	9.56
435.99	9.52
436.347	9.51
436.703	9.49
437.06	9.51
437.416	9.51
437.773	9.51
438.129	9.5
438.485	9.51
438.841	9.52
439.198	9.53
439.554	9.53
439.91	9.51
440.266	9.5
440.622	9.47
440.978	9.46
441.334	9.42
441.69	9.41
442.046	9.37
442.402	9.35
442.758	9.31
443.113	9.27
443.469	9.27
443.825	9.25
444.181	9.25
444.536	9.24
444.892	9.24
445.247	9.21
445.603	9.2
445.958	9.17
446.314	9.16
446.669	9.12
447.025	9.09
447.38	9.09
447.735	9.07
448.09	9.06
448.446	9.05
448.801	9.06
449.156	9.04
449.511	9.07
449.866	9.07
450.221	9.11
450.576	9.12
450.931	9.14
451.286	9.15
451.641	9.15
451.995	9.15
452.35	9.17
452.705	9.21
453.06	9.21
453.414	9.24
453.769	9.25
454.123	9.25
454.478	9.26
454.832	9.23
455.187	9.23
455.541	9.23
455.896	9.2
456.25	9.19
456.604	9.18
456.958	9.17
457.313	9.18
457.667	9.2
458.021	9.23
458.375	9.27
458.729	9.31
459.083	9.36
459.437	9.39
459.791	9.41
460.145	9.43
460.499	9.48
460.852	9.5
461.206	9.54
461.56	9.59
461.914	9.64
462.267	9.69
462.621	9.75
462.974	9.83
463.328	9.93
463.681	10.05
464.035	10.17
464.388	10.27
464.742	10.38
465.095	10.44
465.448	10.51
465.801	10.57
466.155	10.62
466.508	10.68
466.861	10.72
467.214	10.78
467.567	10.84
467.92	10.87
468.273	10.93
468.626	10.96
468.979	11
469.332	11.04
469.684	11.08
470.037	11.12
470.39	11.15
470.743	11.19
471.095	11.22
471.448	11.25
471.8	11.29
472.153	11.3
472.505	11.31
472.858	11.29
473.21	11.28
473.562	11.24
473.915	11.22
474.267	11.2
474.619	11.15
474.971	11.11
475.324	11.09
475.676	11.02
476.028	10.99
476.38	10.96
476.732	10.9
477.084	10.84
477.436	10.77
477.787	10.7
478.139	10.63
478.491	10.56
478.843	10.48
479.195	10.37
479.546	10.22
479.898	10.06
480.249	9.93
480.601	9.8
480.952	9.72
481.304	9.66
481.655	9.63
482.007	9.61
482.358	9.59
482.709	9.57
483.061	9.56
483.412	9.53
483.763	9.5
484.114	9.48
484.465	9.47
484.816	9.47
485.167	9.47
485.518	9.47
485.869	9.47
486.22	9.49
486.571	9.51
486.922	9.55
487.272	9.6
487.623	9.67
487.974	9.74
488.324	9.82
488.675	9.89
489.025	9.95
489.376	10.01
489.726	10.07
490.077	10.13
490.427	10.2
490.778	10.3
491.128	10.4
491.478	10.51
491.828	10.64
492.179	10.78
492.529	10.92
492.879	11.05
493.229	11.17
493.579	11.27
493.929	11.36
494.279	11.47
494.629	11.6
494.979	11.76
495.328	11.95
495.678	12.16
496.028	12.37
496.378	12.55
496.727	12.7
497.077	12.87
497.426	13.04
497.776	13.14
498.125	13.27
498.475	13.38
498.824	13.51
499.174	13.63
499.523	13.73
499.872	13.84
500.221	13.98
500.571	14.1
500.92	14.24
501.269	14.38
501.618	14.51
501.967	14.64
502.316	14.76
502.665	14.88
503.014	15.01
503.363	15.11
503.711	15.21
504.06	15.3
504.409	15.35
504.758	15.42
505.106	15.52
505.455	15.6
505.803	15.67
506.152	15.72
506.5	15.78
506.849	15.84
507.197	15.9
507.546	15.94
507.894	15.99
508.242	16.06
508.59	16.11
508.939	16.16
509.287	16.19
509.635	16.23
509.983	16.28
510.331	16.31
510.679	16.37
511.027	16.4
511.375	16.43
511.723	16.5
512.07	16.53
512.418	16.58
512.766	16.61
513.114	16.64
513.461	16.67
513.809	16.69
514.156	16.72
514.504	16.75
514.851	16.76
515.199	16.77
515.546	16.78
515.893	16.79
516.241	16.81
516.588	16.84
516.935	16.86
517.282	16.87
517.63	16.89
517.977	16.87
518.324	16.9
518.671	16.92
519.018	16.91
519.365	16.9
519.711	16.9
520.058	16.89
520.405	16.89
520.752	16.92
521.099	16.94
521.445	16.93
521.792	16.91
522.138	16.92
522.485	16.93
522.832	16.93
523.178	16.93
523.524	16.91
523.871	16.89
524.217	16.88
524.563	16.83
524.91	16.77
525.256	16.73
525.602	16.66
525.948	16.64
526.294	16.63
526.64	16.62
526.986	16.62
527.332	16.63
527.678	16.64
528.024	16.63
528.37	16.63
528.716	16.63
529.061	16.64
529.407	16.63
529.753	16.62
530.098	16.6
530.444	16.58
530.789	16.59
531.135	16.6
531.48	16.61
531.826	16.64
532.171	16.67
532.516	16.7
532.862	16.74
533.207	16.73
533.552	16.74
533.897	16.73
534.242	16.73
534.587	16.71
534.932	16.7
535.277	16.69
535.622	16.67
535.967	16.68
536.312	16.68
536.657	16.67
537.001	16.65
537.346	16.65
537.691	16.62
538.035	16.56
538.38	16.5
538.724	16.44
539.069	16.39
539.413	16.36
539.758	16.33
540.102	16.33
540.446	16.31
540.791	16.29
541.135	16.3
541.479	16.27
541.823	16.26
542.167	16.25
542.512	16.24
542.856	16.23
543.2	16.2
543.543	16.18
543.887	16.16
544.231	16.17
544.575	16.17
544.919	16.16
545.262	16.17
545.606	16.17
545.95	16.18
546.293	16.2
546.637	16.21
546.98	16.2
547.324	16.17
547.667	16.17
548.011	16.14
548.354	16.09
548.697	16.09
549.04	16.07
549.384	16.04
549.727	16.01
550.07	15.98
550.413	15.95
550.756	15.93
551.099	15.92
551.442	15.9
551.785	15.86
552.128	15.87
552.47	15.81
552.813	15.78
553.156	15.74
553.499	15.68
553.841	15.63
554.184	15.63
554.526	15.62
554.869	15.6
555.211	15.57
555.554	15.54
555.896	15.5
556.238	15.45
556.581	15.41
556.923	15.36
557.265	15.31
557.607	15.3
557.949	15.23
558.291	15.17
558.633	15.13
558.975	15.09
559.317	15.04
559.659	15.02
560.001	14.97
560.343	14.92
560.685	14.87
561.026	14.8
561.368	14.71
561.71	14.64
562.051	14.58
562.393	14.54
562.734	14.49
563.076	14.42
563.417	14.38
563.759	14.32
564.1	14.31
564.441	14.31
564.782	14.26
565.124	14.21
565.465	14.17
565.806	14.12
566.147	14.05
566.488	14
566.829	13.96
567.17	13.9
567.511	13.88
567.851	13.85
568.192	13.83
568.533	13.8
568.874	13.77
569.214	13.73
569.555	13.67
569.895	13.64
570.236	13.62
570.576	13.57
570.917	13.54
571.257	13.51
571.598	13.45
571.938	13.42
572.278	13.41
572.618	13.39
572.959	13.35
573.299	13.35
573.639	13.32
573.979	13.29
574.319	13.27
574.659	13.22
574.999	13.19
575.339	13.12
575.678	13.08
576.018	13.03
576.358	12.99
576.698	12.94
577.037	12.87
577.377	12.81
577.716	12.76
578.056	12.71
578.395	12.61
578.735	12.56
579.074	12.49
579.413	12.42
579.753	12.36
580.092	12.32
580.431	12.23
580.77	12.21
581.109	12.15
581.448	12.08
581.787	12.04
582.126	11.97
582.465	11.93
582.804	11.86
583.143	11.81
583.482	11.76
583.82	11.74
584.159	11.73
584.498	11.67
584.836	11.64
585.175	11.59
585.514	11.59
585.852	11.52
586.19	11.49
586.529	11.46
586.867	11.43
587.205	11.39
587.544	11.39
587.882	11.37
588.22	11.34
588.558	11.32
588.896	11.28
589.234	11.27
589.572	11.24
589.91	11.24
590.248	11.24
590.586	11.23
590.924	11.26
591.262	11.21
591.599	11.2
591.937	11.19
592.275	11.17
592.612	11.12
592.95	11.12
593.287	11.13
593.625	11.13
593.962	11.15
594.299	11.15
594.637	11.15
594.974	11.11
595.311	11.11
595.648	11.1
595.985	11.12
596.322	11.1
596.659	11.11
596.996	11.07
597.333	11
597.67	10.95
598.007	10.89
598.344	10.87
598.681	10.85
599.017	10.8
599.354	10.81
599.691	10.78
600.027	10.75
600.364	10.73
600.7	10.68
601.037	10.64
601.373	10.64
601.71	10.62
602.046	10.6
602.382	10.55
602.718	10.54
603.054	10.5
603.391	10.48
603.727	10.44
604.063	10.44
604.399	10.44
604.735	10.44
605.071	10.44
605.406	10.44
605.742	10.45
606.078	10.47
606.414	10.46
606.749	10.48
607.085	10.48
607.421	10.45
607.756	10.44
608.092	10.38
608.427	10.3
608.762	10.24
609.098	10.2
609.433	10.17
609.768	10.13
610.104	10.1
610.439	10.06
610.774	10.04
611.109	10.02
611.444	9.99
611.779	9.94
612.114	9.9
612.449	9.83
612.784	9.77
613.118	9.7
613.453	9.6
613.788	9.5
614.123	9.38
614.457	9.29
614.792	9.26
615.126	9.21
615.461	9.2
615.795	9.16
616.13	9.12
616.464	9.11
616.798	9.09
617.132	9.08
617.467	9.07
617.801	9.03
618.135	9.03
618.469	9.03
618.803	9
619.137	8.95
619.471	8.94
619.805	8.92
620.139	8.88
620.472	8.89
620.806	8.88
621.14	8.85
621.473	8.83
621.807	8.78
622.141	8.76
622.474	8.73
622.808	8.71
623.141	8.7
623.474	8.73
623.808	8.73
624.141	8.74
624.474	8.75
624.807	8.74
625.141	8.72
625.474	8.7
625.807	8.75
626.14	8.76
626.473	8.78
626.806	8.78
627.138	8.81
627.471	8.76
627.804	8.77
628.137	8.81
628.469	8.83
628.802	8.77
629.135	8.76
629.467	8.76
629.8	8.73
630.132	8.7
630.465	8.65
630.797	8.6
631.129	8.55
631.461	8.5
631.794	8.47
632.126	8.42
632.458	8.41
632.79	8.37
633.122	8.35
633.454	8.34
633.786	8.31
634.118	8.25
634.45	8.26
634.781	8.2
635.113	8.19
635.445	8.16
635.777	8.17
636.108	8.16
636.44	8.11
636.771	8.11
637.103	8.08
637.434	8.06
637.765	8.05
638.097	8.02
638.428	8
638.759	7.97
639.09	7.98
639.422	7.94
639.753	7.87
640.084	7.85
640.415	7.83
640.746	7.83
641.077	7.8
641.407	7.76
641.738	7.73
642.069	7.71
642.4	7.66
642.73	7.66
643.061	7.62
643.392	7.63
643.722	7.64
644.053	7.64
644.383	7.61
644.713	7.62
645.044	7.6
645.374	7.57
645.704	7.54
646.034	7.53
646.365	7.53
646.695	7.57
647.025	7.55
647.355	7.55
647.685	7.53
648.015	7.6
648.344	7.66
648.674	7.68
649.004	7.69
649.334	7.74
649.663	7.79
649.993	7.84
650.323	7.83
650.652	7.8
650.982	7.79
651.311	7.82
