Data from pcis_p_m3_p4_Reflection_1.txt Node
Date: Wed Jul 12 17:46:46 ART 2017
User: rodoncho
Spectrometer: USB2E3644
Trigger mode: 4
Integration Time (sec): 6.000000E-2
Scans to average: 10
Electric dark correction enabled: true
Nonlinearity correction enabled: false
Boxcar width: 10
XAxis mode: Wavelengths
Number of Pixels in Spectrum: 2048
>>>>>Begin Spectral Data<<<<<
178.315	70.63
178.696	60.49
179.076	93.06
179.457	88.55
179.838	107.58
180.218	168.52
180.599	177.78
180.979	-33.33
181.36	-136.11
181.74	-157.41
182.121	-105.56
182.501	141.76
182.881	158.6
183.262	157.26
183.642	-416.67
184.022	-45.61
184.402	10.22
184.783	33.33
185.163	41.45
185.543	56.69
185.923	64.02
186.303	66.27
186.683	68.26
187.063	71.58
187.443	73.41
187.823	75.33
188.203	78.15
188.583	76.46
188.963	80.43
189.343	84.06
189.723	89.48
190.102	94.77
190.482	96.02
190.862	96.61
191.242	94.96
191.621	93.1
192.001	92.11
192.38	92.62
192.76	91.58
193.14	93.88
193.519	93.31
193.898	92.26
194.278	91.64
194.657	90.27
195.037	91.47
195.416	89.92
195.795	89.46
196.175	89.32
196.554	89.78
196.933	87.4
197.312	87.52
197.692	89.57
198.071	91.41
198.45	88.77
198.829	88.71
199.208	88.59
199.587	90.71
199.966	90.97
200.345	92.54
200.724	93.31
201.103	91.12
201.482	89.4
201.86	90.19
202.239	89.06
202.618	90.48
202.997	92.17
203.375	95.35
203.754	96.17
204.133	95.95
204.511	96.87
204.89	99.26
205.269	100.6
205.647	100.06
206.026	98.67
206.404	99.97
206.782	100.58
207.161	100.22
207.539	98.49
207.918	99.41
208.296	99.1
208.674	98.07
209.052	99.26
209.431	101.31
209.809	102.01
210.187	103.29
210.565	103.72
210.943	101.31
211.321	99.44
211.699	99.66
212.077	99.28
212.455	98.39
212.833	97.28
213.211	96.7
213.589	95.77
213.967	96.19
214.345	96.27
214.722	95.93
215.1	96.21
215.478	97.69
215.855	97.59
216.233	96.91
216.611	97.3
216.988	97.25
217.366	96.11
217.743	96.35
218.121	96.79
218.498	96.59
218.876	96.87
219.253	97.73
219.631	97.98
220.008	98.55
220.385	98.68
220.762	99.13
221.14	98.76
221.517	98.76
221.894	98.61
222.271	98.53
222.648	99.05
223.025	98.68
223.402	98.98
223.78	99.36
224.157	100.75
224.533	101.22
224.91	101.22
225.287	102.09
225.664	101.75
226.041	100.88
226.418	100.42
226.795	101.44
227.171	102.38
227.548	102.03
227.925	101.65
228.301	101.7
228.678	101.83
229.055	103.25
229.431	104.35
229.808	104.11
230.184	104.32
230.561	104.77
230.937	105.78
231.313	105.32
231.69	106.03
232.066	106.73
232.442	106.84
232.819	107.51
233.195	106.22
233.571	106.25
233.947	108.1
234.323	109.3
234.699	110.92
235.075	111.25
235.451	112.83
235.827	113.88
236.203	115.48
236.579	115.58
236.955	114.49
237.331	114.39
237.707	116.37
238.083	118.2
238.459	121.52
238.834	127.49
239.21	131.29
239.586	135.28
239.961	138.01
240.337	140.68
240.713	143.29
241.088	148.37
241.464	153.7
241.839	159.19
242.215	166.99
242.59	177.75
242.965	196.23
243.341	237.43
243.716	301.14
244.091	410.49
244.467	616.32
244.842	1165.86
245.217	2501.15
245.592	6098.61
245.967	-7677.19
246.343	-6094.44
246.718	-73733.33
247.093	-12172.22
247.468	-4795.56
247.843	-2940.14
248.218	-1709.13
248.593	-1083.21
248.967	-756.14
249.342	-645.59
249.717	-625.51
250.092	-637.52
250.467	-726.63
250.841	-971.49
251.216	-4157.84
251.591	1778.33
251.965	752.46
252.34	541.54
252.714	444.76
253.089	410.19
253.463	397.67
253.838	394.92
254.212	400.19
254.587	413.02
254.961	476.24
255.335	663.57
255.71	3118.84
256.084	-821.52
256.458	-347.6
256.832	-227.14
257.206	-188.83
257.581	-168.78
257.955	-159.1
258.329	-148.45
258.703	-139.01
259.077	-132.85
259.451	-127.5
259.825	-119.51
260.199	-115.79
260.572	-112.03
260.946	-108.48
261.32	-107.84
261.694	-104.77
262.068	-101.74
262.441	-99.45
262.815	-97.79
263.189	-97.63
263.562	-103.11
263.936	-116.91
264.309	-141.3
264.683	-175.75
265.056	-196.85
265.43	-203.58
265.803	-196.6
266.176	-196.17
266.55	-202.02
266.923	-190.9
267.296	-176.53
267.67	-163.61
268.043	-148
268.416	-136.53
268.789	-123.61
269.162	-108.5
269.535	-101.71
269.908	-96.95
270.281	-92.97
270.654	-93.74
271.027	-95.84
271.4	-97.16
271.773	-98.7
272.146	-97.29
272.519	-92.37
272.891	-88.93
273.264	-87.98
273.637	-87.29
274.01	-87.09
274.382	-84.99
274.755	-84.61
275.127	-84.81
275.5	-85.85
275.872	-86.87
276.245	-86.96
276.617	-88.2
276.99	-94.25
277.362	-96.04
277.734	-96.61
278.107	-95.89
278.479	-92.01
278.851	-87.39
279.223	-83.14
279.596	-80.4
279.968	-79.42
280.34	-79.23
280.712	-77.55
281.084	-73.56
281.456	-67.78
281.828	-62.44
282.2	-56.75
282.572	-52.88
282.944	-49.51
283.315	-47.88
283.687	-47.19
284.059	-46.65
284.431	-46.08
284.802	-44.93
285.174	-43.9
285.546	-42.66
285.917	-42.27
286.289	-41.37
286.66	-40.7
287.032	-40.67
287.403	-39.71
287.775	-38.85
288.146	-38.37
288.518	-38.25
288.889	-37.95
289.26	-38.69
289.632	-39.36
290.003	-41.07
290.374	-42.02
290.745	-42.8
291.116	-43.11
291.487	-41.58
291.858	-40.56
292.229	-39.4
292.6	-37.72
292.971	-36.5
293.342	-34.31
293.713	-32.41
294.084	-31.22
294.455	-30.33
294.826	-29.16
295.196	-29.32
295.567	-29.52
295.938	-29.01
296.308	-28.68
296.679	-28.5
297.05	-27.74
297.42	-26.99
297.791	-26
298.161	-25.26
298.532	-24.54
298.902	-23.94
299.272	-23.76
299.643	-23.11
300.013	-22.75
300.383	-22.75
300.754	-22.38
301.124	-22.96
301.494	-23.02
301.864	-23.02
302.234	-23.36
302.604	-23.97
302.974	-23.87
303.344	-23.45
303.714	-23.47
304.084	-23.15
304.454	-22.68
304.824	-21.93
305.194	-21.54
305.563	-20.9
305.933	-20.18
306.303	-19.5
306.673	-18.73
307.042	-17.93
307.412	-17.12
307.781	-16.18
308.151	-15.24
308.521	-14.74
308.89	-14.39
309.259	-14.09
309.629	-13.86
309.998	-13.47
310.368	-13.02
310.737	-12.43
311.106	-12.06
311.475	-11.59
311.845	-11.06
312.214	-10.55
312.583	-10.47
312.952	-9.99
313.321	-9.97
313.69	-9.71
314.059	-9.91
314.428	-9.76
314.797	-9.87
315.166	-10.4
315.535	-10.73
315.904	-10.99
316.272	-11.18
316.641	-11.29
317.01	-11.35
317.379	-11.55
317.747	-11.23
318.116	-10.88
318.484	-10.42
318.853	-9.91
319.221	-9.61
319.59	-9.21
319.958	-9.02
320.327	-8.56
320.695	-8.51
321.063	-8.26
321.432	-8.01
321.8	-7.49
322.168	-6.76
322.536	-5.98
322.905	-5.26
323.273	-4.97
323.641	-4.59
324.009	-4.6
324.377	-4.11
324.745	-3.75
325.113	-3.11
325.481	-2.72
325.849	-2.23
326.216	-2.02
326.584	-1.83
326.952	-1.71
327.32	-1.66
327.687	-1.48
328.055	-1.3
328.423	-1.09
328.79	-0.8
329.158	-0.8
329.525	-0.57
329.893	-0.47
330.26	-0.42
330.628	-0.53
330.995	-0.23
331.362	0.04
331.73	0.78
332.097	1.05
332.464	1.31
332.831	1.42
333.199	1.65
333.566	1.93
333.933	2.04
334.3	2.16
334.667	2.32
335.034	2.55
335.401	2.66
335.768	2.59
336.135	2.73
336.502	2.85
336.868	3.21
337.235	3.5
337.602	3.8
337.969	4.04
338.335	4.42
338.702	4.59
339.069	4.86
339.435	5.01
339.802	5.14
340.168	5.37
340.535	5.65
340.901	5.76
341.267	5.9
341.634	6.17
342	6.38
342.366	6.66
342.733	6.83
343.099	7.15
343.465	7.49
343.831	7.72
344.197	7.9
344.563	7.88
344.929	8.02
345.295	8.14
345.661	8.17
346.027	8.32
346.393	8.37
346.759	8.29
347.125	8.4
347.491	8.56
347.856	8.71
348.222	8.71
348.588	8.82
348.953	8.73
349.319	8.74
349.684	8.87
350.05	8.95
350.415	9.2
350.781	9.27
351.146	9.36
351.512	9.37
351.877	9.58
352.242	9.74
352.608	9.7
352.973	9.63
353.338	9.8
353.703	9.93
354.068	10.14
354.433	10.33
354.798	10.47
355.164	10.56
355.528	10.51
355.893	10.63
356.258	10.74
356.623	10.85
356.988	10.93
357.353	11.06
357.718	11.21
358.082	11.23
358.447	11.23
358.812	11.26
359.176	11.37
359.541	11.3
359.905	11.37
360.27	11.5
360.634	11.6
360.999	11.58
361.363	11.62
361.728	11.58
362.092	11.6
362.456	11.55
362.821	11.65
363.185	11.76
363.549	11.87
363.913	11.96
364.277	12.05
364.641	12.19
365.005	12.23
365.369	12.23
365.733	12.27
366.097	12.35
366.461	12.43
366.825	12.51
367.189	12.59
367.553	12.64
367.916	12.73
368.28	12.88
368.644	13.05
369.007	13.17
369.371	13.24
369.734	13.37
370.098	13.52
370.461	13.64
370.825	13.71
371.188	13.78
371.552	13.84
371.915	13.95
372.278	14.05
372.642	14.14
373.005	14.19
373.368	14.21
373.731	14.27
374.094	14.27
374.457	14.27
374.82	14.4
375.183	14.53
375.546	14.56
375.909	14.54
376.272	14.49
376.635	14.44
376.998	14.48
377.361	14.52
377.723	14.5
378.086	14.47
378.449	14.58
378.811	14.65
379.174	14.64
379.537	14.68
379.899	14.7
380.262	14.77
380.624	14.79
380.987	14.88
381.349	14.9
381.711	15
382.074	15.14
382.436	15.11
382.798	15.03
383.16	15.08
383.522	15.13
383.884	15.19
384.247	15.28
384.609	15.36
384.971	15.38
385.333	15.41
385.695	15.45
386.056	15.42
386.418	15.39
386.78	15.45
387.142	15.36
387.504	15.38
387.865	15.32
388.227	15.39
388.589	15.39
388.95	15.4
389.312	15.36
389.673	15.29
390.035	15.3
390.396	15.35
390.758	15.34
391.119	15.33
391.48	15.31
391.842	15.26
392.203	15.23
392.564	15.19
392.925	15.21
393.286	15.21
393.648	15.21
394.009	15.21
394.37	15.17
394.731	15.18
395.092	15.13
395.452	15.15
395.813	15.15
396.174	15.15
396.535	15.2
396.896	15.21
397.257	15.23
397.617	15.26
397.978	15.26
398.338	15.26
398.699	15.28
399.06	15.31
399.42	15.33
399.781	15.32
400.141	15.31
400.501	15.27
400.862	15.23
401.222	15.23
401.582	15.22
401.943	15.23
402.303	15.23
402.663	15.23
403.023	15.19
403.383	15.12
403.743	15.06
404.103	15.03
404.463	15.03
404.823	15.02
405.183	14.99
405.543	14.99
405.903	14.96
406.262	14.94
406.622	14.89
406.982	14.88
407.342	14.86
407.701	14.84
408.061	14.81
408.42	14.81
408.78	14.8
409.139	14.78
409.499	14.75
409.858	14.74
410.217	14.71
410.577	14.68
410.936	14.69
411.295	14.71
411.655	14.65
412.014	14.58
412.373	14.51
412.732	14.43
413.091	14.36
413.45	14.31
413.809	14.25
414.168	14.18
414.527	14.1
414.886	14.02
415.245	13.95
415.603	13.9
415.962	13.78
416.321	13.68
416.679	13.59
417.038	13.51
417.397	13.41
417.755	13.31
418.114	13.26
418.472	13.17
418.831	13.1
419.189	13.05
419.547	13
419.906	12.95
420.264	12.88
420.622	12.81
420.981	12.75
421.339	12.7
421.697	12.64
422.055	12.6
422.413	12.58
422.771	12.56
423.129	12.53
423.487	12.53
423.845	12.53
424.203	12.52
424.56	12.5
424.918	12.53
425.276	12.56
425.634	12.56
425.991	12.58
426.349	12.57
426.707	12.58
427.064	12.59
427.422	12.6
427.779	12.63
428.137	12.64
428.494	12.68
428.851	12.71
429.209	12.72
429.566	12.71
429.923	12.67
430.28	12.65
430.637	12.63
430.995	12.58
431.352	12.54
431.709	12.52
432.066	12.54
432.423	12.52
432.78	12.49
433.137	12.47
433.493	12.45
433.85	12.45
434.207	12.41
434.564	12.38
434.92	12.36
435.277	12.31
435.634	12.26
435.99	12.2
436.347	12.16
436.703	12.13
437.06	12.08
437.416	12.06
437.773	12.02
438.129	11.98
438.485	11.98
438.841	11.96
439.198	11.93
439.554	11.9
439.91	11.89
440.266	11.87
440.622	11.84
440.978	11.8
441.334	11.76
441.69	11.72
442.046	11.68
442.402	11.64
442.758	11.6
443.113	11.57
443.469	11.53
443.825	11.49
444.181	11.46
444.536	11.46
444.892	11.44
445.247	11.44
445.603	11.44
445.958	11.44
446.314	11.43
446.669	11.4
447.025	11.38
447.38	11.36
447.735	11.36
448.09	11.35
448.446	11.35
448.801	11.36
449.156	11.35
449.511	11.37
449.866	11.39
450.221	11.42
450.576	11.45
450.931	11.45
451.286	11.47
451.641	11.5
451.995	11.5
452.35	11.51
452.705	11.52
453.06	11.51
453.414	11.48
453.769	11.49
454.123	11.5
454.478	11.5
454.832	11.46
455.187	11.41
455.541	11.36
455.896	11.31
456.25	11.22
456.604	11.18
456.958	11.11
457.313	11.07
457.667	11.06
458.021	11.03
458.375	11.05
458.729	11.04
459.083	11.03
459.437	11.02
459.791	11.01
460.145	11.02
460.499	11.02
460.852	11.01
461.206	11
461.56	11.01
461.914	11
462.267	11.01
462.621	11.01
462.974	11.03
463.328	11.06
463.681	11.1
464.035	11.14
464.388	11.18
464.742	11.2
465.095	11.21
465.448	11.21
465.801	11.21
466.155	11.2
466.508	11.21
466.861	11.2
467.214	11.21
467.567	11.19
467.92	11.19
468.273	11.17
468.626	11.15
468.979	11.13
469.332	11.13
469.684	11.12
470.037	11.12
470.39	11.12
470.743	11.1
471.095	11.1
471.448	11.11
471.8	11.11
472.153	11.14
472.505	11.14
472.858	11.14
473.21	11.13
473.562	11.12
473.915	11.1
474.267	11.08
474.619	11.04
474.971	11.03
475.324	11.02
475.676	11.02
476.028	11.02
476.38	11.02
476.732	11.02
477.084	11.01
477.436	10.99
477.787	10.98
478.139	10.98
478.491	10.94
478.843	10.9
479.195	10.89
479.546	10.81
479.898	10.73
480.249	10.68
480.601	10.64
480.952	10.59
481.304	10.53
481.655	10.51
482.007	10.49
482.358	10.47
482.709	10.45
483.061	10.44
483.412	10.43
483.763	10.41
484.114	10.4
484.465	10.38
484.816	10.37
485.167	10.35
485.518	10.34
485.869	10.32
486.22	10.33
486.571	10.32
486.922	10.34
487.272	10.35
487.623	10.34
487.974	10.35
488.324	10.37
488.675	10.39
489.025	10.4
489.376	10.41
489.726	10.43
490.077	10.44
490.427	10.44
490.778	10.45
491.128	10.47
491.478	10.51
491.828	10.55
492.179	10.58
492.529	10.63
492.879	10.66
493.229	10.7
493.579	10.7
493.929	10.71
494.279	10.71
494.629	10.72
494.979	10.74
495.328	10.75
495.678	10.8
496.028	10.86
496.378	10.9
496.727	10.93
497.077	10.95
497.426	10.98
497.776	11
498.125	11.01
498.475	11.01
498.824	11
499.174	10.99
499.523	10.99
499.872	10.97
500.221	10.99
500.571	11.01
500.92	11.02
501.269	11.03
501.618	11.04
501.967	11.08
502.316	11.06
502.665	11.08
503.014	11.09
503.363	11.1
503.711	11.13
504.06	11.12
504.409	11.11
504.758	11.09
505.106	11.1
505.455	11.1
505.803	11.09
506.152	11.08
506.5	11.08
506.849	11.09
507.197	11.1
507.546	11.1
507.894	11.11
508.242	11.13
508.59	11.12
508.939	11.12
509.287	11.12
509.635	11.15
509.983	11.16
510.331	11.15
510.679	11.17
511.027	11.16
511.375	11.18
511.723	11.2
512.07	11.22
512.418	11.25
512.766	11.28
513.114	11.3
513.461	11.32
513.809	11.35
514.156	11.37
514.504	11.4
514.851	11.4
515.199	11.4
515.546	11.38
515.893	11.39
516.241	11.4
516.588	11.42
516.935	11.42
517.282	11.43
517.63	11.45
517.977	11.45
518.324	11.47
518.671	11.47
519.018	11.49
519.365	11.49
519.711	11.49
520.058	11.5
520.405	11.52
520.752	11.54
521.099	11.55
521.445	11.55
521.792	11.55
522.138	11.54
522.485	11.56
522.832	11.59
523.178	11.61
523.524	11.62
523.871	11.63
524.217	11.64
524.563	11.61
524.91	11.59
525.256	11.55
525.602	11.53
525.948	11.5
526.294	11.46
526.64	11.45
526.986	11.43
527.332	11.42
527.678	11.42
528.024	11.41
528.37	11.42
528.716	11.42
529.061	11.43
529.407	11.44
529.753	11.44
530.098	11.44
530.444	11.45
530.789	11.44
531.135	11.45
531.48	11.46
531.826	11.48
532.171	11.5
532.516	11.54
532.862	11.58
533.207	11.62
533.552	11.67
533.897	11.7
534.242	11.73
534.587	11.75
534.932	11.76
535.277	11.79
535.622	11.79
535.967	11.83
536.312	11.85
536.657	11.86
537.001	11.9
537.346	11.94
537.691	11.97
538.035	11.99
538.38	11.99
538.724	11.98
539.069	11.97
539.413	11.96
539.758	11.97
540.102	11.99
540.446	12.01
540.791	12.01
541.135	12.03
541.479	12.04
541.823	12.06
542.167	12.08
542.512	12.1
542.856	12.09
543.2	12.1
543.543	12.1
543.887	12.13
544.231	12.13
544.575	12.15
544.919	12.16
545.262	12.21
545.606	12.26
545.95	12.31
546.293	12.37
546.637	12.43
546.98	12.47
547.324	12.49
547.667	12.53
548.011	12.56
548.354	12.6
548.697	12.63
549.04	12.66
549.384	12.7
549.727	12.72
550.07	12.79
550.413	12.83
550.756	12.86
551.099	12.87
551.442	12.92
551.785	12.95
552.128	13
552.47	13.02
552.813	13.04
553.156	13.06
553.499	13.07
553.841	13.1
554.184	13.12
554.526	13.15
554.869	13.17
555.211	13.2
555.554	13.22
555.896	13.26
556.238	13.31
556.581	13.36
556.923	13.41
557.265	13.45
557.607	13.48
557.949	13.51
558.291	13.54
558.633	13.57
558.975	13.61
559.317	13.62
559.659	13.67
560.001	13.72
560.343	13.77
560.685	13.82
561.026	13.82
561.368	13.85
561.71	13.86
562.051	13.9
562.393	13.96
562.734	14
563.076	14.04
563.417	14.05
563.759	14.06
564.1	14.09
564.441	14.1
564.782	14.13
565.124	14.17
565.465	14.21
565.806	14.25
566.147	14.27
566.488	14.34
566.829	14.35
567.17	14.4
567.511	14.41
567.851	14.45
568.192	14.52
568.533	14.59
568.874	14.66
569.214	14.7
569.555	14.74
569.895	14.8
570.236	14.87
570.576	14.94
570.917	15
571.257	15.06
571.598	15.12
571.938	15.18
572.278	15.26
572.618	15.36
572.959	15.42
573.299	15.48
573.639	15.53
573.979	15.62
574.319	15.67
574.659	15.75
574.999	15.81
575.339	15.88
575.678	15.93
576.018	16.02
576.358	16.1
576.698	16.15
577.037	16.19
577.377	16.25
577.716	16.28
578.056	16.37
578.395	16.42
578.735	16.48
579.074	16.53
579.413	16.58
579.753	16.61
580.092	16.7
580.431	16.8
580.77	16.91
581.109	16.98
581.448	17.05
581.787	17.13
582.126	17.16
582.465	17.24
582.804	17.32
583.143	17.38
583.482	17.42
583.82	17.5
584.159	17.56
584.498	17.64
584.836	17.72
585.175	17.81
585.514	17.9
585.852	17.97
586.19	18.09
586.529	18.15
586.867	18.24
587.205	18.32
587.544	18.39
587.882	18.44
588.22	18.49
588.558	18.58
588.896	18.63
589.234	18.71
589.572	18.76
589.91	18.81
590.248	18.86
590.586	18.95
590.924	19.01
591.262	19.08
591.599	19.16
591.937	19.22
592.275	19.21
592.612	19.24
592.95	19.31
593.287	19.36
593.625	19.48
593.962	19.61
594.299	19.67
594.637	19.71
594.974	19.75
595.311	19.81
595.648	19.86
595.985	19.92
596.322	19.98
596.659	19.98
596.996	20.03
597.333	20.06
597.67	20.07
598.007	20.07
598.344	20.12
598.681	20.14
599.017	20.17
599.354	20.24
599.691	20.32
600.027	20.33
600.364	20.38
600.7	20.4
601.037	20.4
601.373	20.42
601.71	20.48
602.046	20.57
602.382	20.6
602.718	20.63
603.054	20.67
603.391	20.67
603.727	20.74
604.063	20.78
604.399	20.81
604.735	20.85
605.071	20.91
605.406	20.95
605.742	20.98
606.078	21.04
606.414	21.06
606.749	21.08
607.085	21.12
607.421	21.13
607.756	21.13
608.092	21.16
608.427	21.18
608.762	21.19
609.098	21.17
609.433	21.18
609.768	21.14
610.104	21.15
610.439	21.19
610.774	21.19
611.109	21.19
611.444	21.23
611.779	21.23
612.114	21.24
612.449	21.19
612.784	21.2
613.118	21.19
613.453	21.17
613.788	21.11
614.123	21.12
614.457	21.15
614.792	21.12
615.126	21.08
615.461	21.06
615.795	21.04
616.13	21.04
616.464	21.04
616.798	21.11
617.132	21.12
617.467	21.08
617.801	21.07
618.135	21.08
618.469	21.04
618.803	21.04
619.137	21.04
619.471	21.08
619.805	21.06
620.139	21.05
620.472	21.07
620.806	21.11
621.14	21.07
621.473	21.05
621.807	21.06
622.141	21.07
622.474	21.06
622.808	21.05
623.141	21.07
623.474	21.11
623.808	21.09
624.141	21.07
624.474	21.11
624.807	21.13
625.141	21.14
625.474	21.13
625.807	21.17
626.14	21.19
626.473	21.22
626.806	21.27
627.138	21.28
627.471	21.28
627.804	21.33
628.137	21.33
628.469	21.33
628.802	21.37
629.135	21.36
629.467	21.4
629.8	21.39
630.132	21.38
630.465	21.38
630.797	21.37
631.129	21.38
631.461	21.37
631.794	21.38
632.126	21.33
632.458	21.41
632.79	21.43
633.122	21.43
633.454	21.38
633.786	21.36
634.118	21.36
634.45	21.35
634.781	21.31
635.113	21.32
635.445	21.32
635.777	21.29
636.108	21.3
636.44	21.26
636.771	21.26
637.103	21.23
637.434	21.21
637.765	21.21
638.097	21.25
638.428	21.21
638.759	21.21
639.09	21.2
639.422	21.14
639.753	21.08
640.084	21.07
640.415	21.09
640.746	21.12
641.077	21.08
641.407	21.1
641.738	21.11
642.069	21.09
642.4	21.08
642.73	21.07
643.061	21.1
643.392	21.1
643.722	21.16
644.053	21.15
644.383	21.13
644.713	21.1
645.044	21
645.374	21.05
645.704	20.99
